
Integration time [ms]:   1.500
Averaging Nr. [scans]: 100
Smoothing Nr. [pixels]: 0
Data measured with spectrometer [name]: 1804346U2
Wave   ;Sample   ;Dark     ;Reference;Scope
[nm]   ;[counts] ;[counts] ;[counts] 

 294.30;    2.196;    3.667;    0.000
 294.47;    1.053;    1.267;    0.000
 294.63;   -6.302;   30.333;    0.000
 294.80;    3.735;    0.400;    0.000
 294.97;   -1.401;    4.067;    0.000
 295.14;   -4.218;    3.467;    0.000
 295.31;    5.194;    9.200;    0.000
 295.48;    3.733;    9.800;    0.000
 295.64;   -2.158;  -12.800;    0.000
 295.81;   -2.635;    0.400;    0.000
 295.98;   -5.681;   -2.400;    0.000
 296.15;    1.234;   -5.800;    0.000
 296.32;   -0.572;   -4.000;    0.000
 296.48;    3.136;   -8.800;    0.000
 296.65;    7.814;   -4.800;    0.000
 296.82;   11.254;    5.867;    0.000
 296.99;   18.110;   -3.600;    0.000
 297.16;    7.090;   24.600;    0.000
 297.33;   -1.969;   16.467;    0.000
 297.49;    8.093;    2.133;    0.000
 297.66;   -3.059;    9.000;    0.000
 297.83;    3.761;   -0.800;    0.000
 298.00;   -4.360;    5.000;    0.000
 298.17;    4.983;   -0.200;    0.000
 298.33;   -7.039;   13.133;    0.000
 298.50;    2.791;    9.933;    0.000
 298.67;    0.659;   -1.067;    0.000
 298.84;    1.246;   -1.267;    0.000
 299.01;   -0.781;   16.667;    0.000
 299.17;    0.439;   16.533;    0.000
 299.34;   -9.104;    6.000;    0.000
 299.51;    1.246;   11.067;    0.000
 299.68;   -3.667;   -2.733;    0.000
 299.85;   -0.630;  -17.933;    0.000
 300.01;    1.524;   13.067;    0.000
 300.18;   -1.541;   11.200;    0.000
 300.35;   -4.150;    2.467;    0.000
 300.52;    9.143;   -2.000;    0.000
 300.69;    2.040;   10.000;    0.000
 300.86;    2.586;   -0.333;    0.000
 301.02;    2.214;   -2.867;    0.000
 301.19;    4.058;    6.000;    0.000
 301.36;    2.849;   -0.933;    0.000
 301.53;   -0.850;   20.733;    0.000
 301.70;    8.521;    2.867;    0.000
 301.86;    7.235;   21.467;    0.000
 302.03;    8.078;    1.800;    0.000
 302.20;   10.978;    4.000;    0.000
 302.37;   17.666;   -6.733;    0.000
 302.54;    8.296;    0.133;    0.000
 302.70;    1.598;   -4.600;    0.000
 302.87;    3.101;   46.133;    0.000
 303.04;    2.880;  -23.800;    0.000
 303.21;    9.094;    4.533;    0.000
 303.37;   -2.732;    5.267;    0.000
 303.54;    1.403;    1.933;    0.000
 303.71;    7.687;   12.133;    0.000
 303.88;    6.839;   12.200;    0.000
 304.05;   -1.728;   26.133;    0.000
 304.21;   -2.040;   -3.200;    0.000
 304.38;   -3.521;   20.800;    0.000
 304.55;    3.322;    9.333;    0.000
 304.72;    2.175;    0.733;    0.000
 304.89;    4.437;   18.667;    0.000
 305.05;    2.395;    3.933;    0.000
 305.22;   -1.175;   -7.067;    0.000
 305.39;   -2.021;   12.733;    0.000
 305.56;    4.671;  -12.267;    0.000
 305.73;   -0.975;   12.133;    0.000
 305.89;   -2.709;    3.800;    0.000
 306.06;   -2.572;   19.400;    0.000
 306.23;   -0.880;   13.267;    0.000
 306.40;   -4.217;    7.933;    0.000
 306.56;   -2.365;    4.467;    0.000
 306.73;   -1.323;   17.267;    0.000
 306.90;    2.510;    0.067;    0.000
 307.07;    3.795;   -3.533;    0.000
 307.24;    3.445;   18.667;    0.000
 307.40;   -6.779;    5.600;    0.000
 307.57;    7.697;   15.067;    0.000
 307.74;   -4.367;    4.600;    0.000
 307.91;    0.075;    7.733;    0.000
 308.08;    2.673;   -3.933;    0.000
 308.24;    0.872;   -9.467;    0.000
 308.41;    3.510;   11.533;    0.000
 308.58;    4.263;    3.067;    0.000
 308.75;   -3.675;    0.600;    0.000
 308.91;    0.999;   10.333;    0.000
 309.08;   -0.921;  -12.867;    0.000
 309.25;   -3.725;    5.000;    0.000
 309.42;   -3.323;    6.667;    0.000
 309.58;    2.083;    9.733;    0.000
 309.75;   -0.049;   17.267;    0.000
 309.92;    3.351;    5.933;    0.000
 310.09;   -0.821;   12.533;    0.000
 310.26;    0.083;    2.267;    0.000
 310.42;    4.606;   15.733;    0.000
 310.59;    2.474;   21.467;    0.000
 310.76;    1.200;   19.600;    0.000
 310.93;    2.218;   13.667;    0.000
 311.09;   11.419;   -4.867;    0.000
 311.26;    3.147;    5.533;    0.000
 311.43;   -2.448;   -3.533;    0.000
 311.60;    7.939;   -4.133;    0.000
 311.76;    6.631;    6.733;    0.000
 311.93;   14.212;   -1.533;    0.000
 312.10;   18.603;    9.133;    0.000
 312.27;   37.973;   31.533;    0.000
 312.44;  102.727;    5.933;    0.000
 312.60;  255.280;   12.133;    0.000
 312.77;  262.218;   -9.667;    0.000
 312.94;  123.753;   -2.533;    0.000
 313.11;  233.777;   13.533;    0.000
 313.27;  443.674;   15.933;    0.000
 313.44;  230.992;    2.400;    0.000
 313.61;   37.899;   -8.333;    0.000
 313.78;    9.489;   16.933;    0.000
 313.94;    7.448;   12.867;    0.000
 314.11;    2.287;   -8.600;    0.000
 314.28;   -3.701;   12.400;    0.000
 314.45;   -6.000;    5.867;    0.000
 314.61;    0.120;   18.333;    0.000
 314.78;   -6.705;   10.067;    0.000
 314.95;    5.297;   -5.533;    0.000
 315.12;    4.091;    7.733;    0.000
 315.28;    0.666;    0.600;    0.000
 315.45;   -2.903;    4.267;    0.000
 315.62;    9.383;   -9.333;    0.000
 315.79;   -1.736;    3.000;    0.000
 315.95;    4.791;    1.067;    0.000
 316.12;    4.639;   -7.867;    0.000
 316.29;    0.671;    7.400;    0.000
 316.46;    5.377;    5.467;    0.000
 316.62;    5.156;   -3.133;    0.000
 316.79;    2.178;    1.533;    0.000
 316.96;    3.754;   12.800;    0.000
 317.13;   -5.301;   -1.067;    0.000
 317.29;    5.145;   13.467;    0.000
 317.46;    3.166;    4.067;    0.000
 317.63;   -1.500;   12.867;    0.000
 317.80;    4.612;   -6.267;    0.000
 317.96;    7.353;    8.533;    0.000
 318.13;   -0.289;   -4.867;    0.000
 318.30;    3.585;    7.333;    0.000
 318.47;    1.350;   13.400;    0.000
 318.63;    3.592;    1.000;    0.000
 318.80;   -1.102;   -7.267;    0.000
 318.97;   -2.374;    0.400;    0.000
 319.14;    2.172;   11.667;    0.000
 319.30;    4.365;   -6.000;    0.000
 319.47;    3.050;   -1.867;    0.000
 319.64;   -6.573;   -5.333;    0.000
 319.81;    0.987;   12.133;    0.000
 319.97;    5.072;   22.533;    0.000
 320.14;    4.712;    3.467;    0.000
 320.31;    3.784;   -3.133;    0.000
 320.48;    1.101;   -2.133;    0.000
 320.64;   -3.980;    6.000;    0.000
 320.81;   -0.327;   16.333;    0.000
 320.98;    2.982;   29.000;    0.000
 321.14;   -4.499;  -12.733;    0.000
 321.31;    1.787;  -18.067;    0.000
 321.48;    2.042;   18.667;    0.000
 321.65;   -0.149;    2.733;    0.000
 321.81;   -0.600;    1.733;    0.000
 321.98;   -1.292;   16.267;    0.000
 322.15;   -4.310;   15.133;    0.000
 322.32;    9.636;   10.133;    0.000
 322.48;   -0.098;   -9.133;    0.000
 322.65;    6.475;   15.800;    0.000
 322.82;    6.346;   14.133;    0.000
 322.99;    1.975;    6.600;    0.000
 323.15;    5.125;   11.600;    0.000
 323.32;    0.744;   -3.667;    0.000
 323.49;    2.462;  -11.867;    0.000
 323.65;    1.102;    5.733;    0.000
 323.82;   -1.876;    6.267;    0.000
 323.99;   -3.705;   21.000;    0.000
 324.16;   -0.418;    0.933;    0.000
 324.32;    0.327;   -6.000;    0.000
 324.49;   -1.655;   15.200;    0.000
 324.66;    3.022;    1.667;    0.000
 324.82;    5.994;  -23.000;    0.000
 324.99;   -4.853;   16.267;    0.000
 325.16;   -1.042;   -0.200;    0.000
 325.33;    3.017;    1.333;    0.000
 325.49;   -0.806;   -4.600;    0.000
 325.66;    2.450;   -2.133;    0.000
 325.83;   -1.485;    1.733;    0.000
 325.99;    8.636;   -1.600;    0.000
 326.16;   -1.691;   -4.600;    0.000
 326.33;    2.926;   -9.467;    0.000
 326.50;   -0.583;    3.333;    0.000
 326.66;    4.804;   -0.667;    0.000
 326.83;    0.993;   31.667;    0.000
 327.00;   -1.105;   11.400;    0.000
 327.16;    3.539;  -12.333;    0.000
 327.33;   -6.473;   13.333;    0.000
 327.50;   -4.950;   -5.933;    0.000
 327.67;    4.150;   13.267;    0.000
 327.83;   -1.595;    8.400;    0.000
 328.00;    6.866;   -5.333;    0.000
 328.17;    3.121;   -9.533;    0.000
 328.33;    4.121;   15.667;    0.000
 328.50;    1.476;   -0.067;    0.000
 328.67;    8.691;    9.733;    0.000
 328.84;    0.883;   22.800;    0.000
 329.00;   -1.123;   13.133;    0.000
 329.17;    2.978;    5.533;    0.000
 329.34;    2.763;    9.400;    0.000
 329.50;   -1.724;    7.867;    0.000
 329.67;    1.301;   14.733;    0.000
 329.84;    1.681;    6.200;    0.000
 330.01;    9.877;    3.067;    0.000
 330.17;    1.973;   14.800;    0.000
 330.34;    1.515;   23.000;    0.000
 330.51;   -1.721;   -0.333;    0.000
 330.67;    1.586;    0.733;    0.000
 330.84;    3.722;    0.867;    0.000
 331.01;   -5.152;    2.600;    0.000
 331.17;   -3.891;    7.867;    0.000
 331.34;    1.618;   14.667;    0.000
 331.51;    3.863;    4.800;    0.000
 331.68;    5.950;    1.933;    0.000
 331.84;   -5.561;   -6.533;    0.000
 332.01;    4.833;  -13.533;    0.000
 332.18;    1.095;    0.200;    0.000
 332.34;    3.374;    1.267;    0.000
 332.51;   -2.475;   -2.467;    0.000
 332.68;    1.085;   13.867;    0.000
 332.84;   -7.569;    5.533;    0.000
 333.01;    3.255;    0.867;    0.000
 333.18;    2.845;    2.467;    0.000
 333.34;   12.939;   22.800;    0.000
 333.51;    9.137;   -2.267;    0.000
 333.68;   17.852;   18.933;    0.000
 333.85;   33.734;   17.133;    0.000
 334.01;   82.829;   -9.467;    0.000
 334.18;  188.780;    0.333;    0.000
 334.35;  133.774;  -12.200;    0.000
 334.51;   24.937;   29.200;    0.000
 334.68;    3.907;    7.733;    0.000
 334.85;   10.208;   13.933;    0.000
 335.01;   -1.330;    4.867;    0.000
 335.18;   -2.093;    0.467;    0.000
 335.35;    7.444;    8.467;    0.000
 335.51;    0.319;    1.200;    0.000
 335.68;   -0.508;   12.333;    0.000
 335.85;    1.928;   -0.133;    0.000
 336.01;    2.178;   -4.600;    0.000
 336.18;    2.845;   -5.200;    0.000
 336.35;   -4.843;   11.000;    0.000
 336.51;   -5.493;    2.400;    0.000
 336.68;    1.235;   -2.400;    0.000
 336.85;    5.558;   -9.533;    0.000
 337.02;    2.172;    4.067;    0.000
 337.18;   -1.008;   20.067;    0.000
 337.35;    1.871;   -6.467;    0.000
 337.52;    3.791;   -9.533;    0.000
 337.68;    1.714;    4.267;    0.000
 337.85;    0.518;    2.067;    0.000
 338.02;    1.895;    6.000;    0.000
 338.18;    0.101;    0.000;    0.000
 338.35;    4.311;   11.800;    0.000
 338.52;    3.068;   -9.467;    0.000
 338.68;    4.660;   11.667;    0.000
 338.85;   10.884;    4.067;    0.000
 339.02;    0.021;    9.733;    0.000
 339.18;    2.358;  -13.800;    0.000
 339.35;   -2.087;   23.733;    0.000
 339.52;   -1.472;   -7.400;    0.000
 339.68;    4.124;    5.000;    0.000
 339.85;   -1.162;    9.933;    0.000
 340.02;   10.704;    1.400;    0.000
 340.18;    1.970;    5.133;    0.000
 340.35;    4.286;   16.800;    0.000
 340.52;    1.414;   -7.067;    0.000
 340.68;    3.023;   10.733;    0.000
 340.85;    4.117;  -17.400;    0.000
 341.02;   -3.027;    8.400;    0.000
 341.18;    5.048;    7.867;    0.000
 341.35;   -2.340;   -5.133;    0.000
 341.52;    3.350;  -13.867;    0.000
 341.68;   -0.694;  -10.600;    0.000
 341.85;   -1.954;  -20.133;    0.000
 342.02;    7.698;   19.867;    0.000
 342.18;    2.921;    2.000;    0.000
 342.35;    9.988;    6.200;    0.000
 342.52;    3.480;    7.600;    0.000
 342.68;    2.800;    8.800;    0.000
 342.85;    0.896;   10.533;    0.000
 343.02;    6.087;   11.667;    0.000
 343.18;    2.464;   15.533;    0.000
 343.35;    5.921;    3.200;    0.000
 343.51;    6.509;    3.267;    0.000
 343.68;    6.680;    2.267;    0.000
 343.85;    9.602;   -7.333;    0.000
 344.01;    2.282;   -9.000;    0.000
 344.18;   -1.482;   -5.133;    0.000
 344.35;   -2.401;  -11.867;    0.000
 344.51;   -1.213;   -1.667;    0.000
 344.68;   -5.463;    3.733;    0.000
 344.85;    2.881;   -1.267;    0.000
 345.01;    4.906;    3.867;    0.000
 345.18;   -0.183;    0.133;    0.000
 345.35;    2.901;   16.867;    0.000
 345.51;    0.535;  -10.333;    0.000
 345.68;    5.686;  -14.267;    0.000
 345.85;   -4.970;    3.800;    0.000
 346.01;    4.392;   15.400;    0.000
 346.18;   -0.477;   -1.200;    0.000
 346.35;    3.657;  -10.933;    0.000
 346.51;    1.920;   19.533;    0.000
 346.68;   -2.465;    5.667;    0.000
 346.84;    7.846;   10.067;    0.000
 347.01;    0.235;   15.333;    0.000
 347.18;    4.175;   17.733;    0.000
 347.34;    6.753;    8.600;    0.000
 347.51;    0.731;   -2.267;    0.000
 347.68;   -0.620;   -6.933;    0.000
 347.84;   -2.436;   24.067;    0.000
 348.01;   -3.337;   10.667;    0.000
 348.18;    3.220;   19.333;    0.000
 348.34;    4.797;    1.933;    0.000
 348.51;    4.862;   10.467;    0.000
 348.67;    9.184;   24.200;    0.000
 348.84;   -0.847;   13.467;    0.000
 349.01;   -5.299;   -9.333;    0.000
 349.17;   -1.532;    7.267;    0.000
 349.34;    4.038;    2.533;    0.000
 349.51;    0.851;   -3.200;    0.000
 349.67;    1.443;    8.133;    0.000
 349.84;    5.516;   -2.533;    0.000
 350.01;    0.328;    6.067;    0.000
 350.17;   -2.706;    4.800;    0.000
 350.34;    1.781;   -5.533;    0.000
 350.50;    4.067;   15.533;    0.000
 350.67;    9.828;    5.133;    0.000
 350.84;    3.199;   -7.933;    0.000
 351.00;   -1.711;   10.800;    0.000
 351.17;    2.151;    8.267;    0.000
 351.34;    7.523;   22.133;    0.000
 351.50;    2.712;    4.000;    0.000
 351.67;   -1.813;    6.267;    0.000
 351.83;    1.886;  -14.400;    0.000
 352.00;    0.150;   -1.200;    0.000
 352.17;   -2.165;    4.067;    0.000
 352.33;   -1.313;    1.933;    0.000
 352.50;    3.351;   -6.867;    0.000
 352.67;    4.019;   -8.067;    0.000
 352.83;    5.301;   -7.067;    0.000
 353.00;   -5.469;   15.600;    0.000
 353.16;    3.289;    6.133;    0.000
 353.33;    5.712;   -7.933;    0.000
 353.50;   -0.453;    4.133;    0.000
 353.66;   13.068;   13.133;    0.000
 353.83;    7.261;   -3.733;    0.000
 354.00;   -2.038;   14.600;    0.000
 354.16;    4.605;   -7.733;    0.000
 354.33;    4.326;   11.267;    0.000
 354.49;   -4.089;   -5.867;    0.000
 354.66;   -2.461;   -0.467;    0.000
 354.83;    7.882;   -7.000;    0.000
 354.99;    4.315;    6.867;    0.000
 355.16;    1.101;   -7.467;    0.000
 355.32;   -1.031;   12.267;    0.000
 355.49;    4.785;   30.533;    0.000
 355.66;    1.811;    6.400;    0.000
 355.82;    1.800;    9.267;    0.000
 355.99;    7.748;   -4.333;    0.000
 356.15;    7.213;    5.667;    0.000
 356.32;   15.486;   19.067;    0.000
 356.49;    5.214;    0.333;    0.000
 356.65;    2.979;   -3.267;    0.000
 356.82;    0.787;   -3.800;    0.000
 356.98;    7.078;    2.733;    0.000
 357.15;    3.036;    7.067;    0.000
 357.32;   10.994;    0.333;    0.000
 357.48;    1.190;    5.133;    0.000
 357.65;    4.447;   -9.933;    0.000
 357.82;    5.935;   -5.400;    0.000
 357.98;    2.335;   14.600;    0.000
 358.15;    5.283;    2.333;    0.000
 358.31;    6.016;   34.067;    0.000
 358.48;    7.028;    9.467;    0.000
 358.65;    7.882;   14.867;    0.000
 358.81;    7.320;  -10.733;    0.000
 358.98;    8.477;    6.333;    0.000
 359.14;    1.714;    7.267;    0.000
 359.31;    7.121;   -8.533;    0.000
 359.48;   10.303;    3.267;    0.000
 359.64;    3.051;   16.867;    0.000
 359.81;   -3.059;   -3.400;    0.000
 359.97;    8.272;    8.467;    0.000
 360.14;   -1.521;    0.667;    0.000
 360.30;    5.238;   13.067;    0.000
 360.47;    1.469;    2.467;    0.000
 360.64;    2.708;  -18.400;    0.000
 360.80;    7.380;   -8.733;    0.000
 360.97;   -1.002;    5.333;    0.000
 361.13;    7.915;    3.867;    0.000
 361.30;    1.518;   -7.800;    0.000
 361.47;    1.688;   -2.933;    0.000
 361.63;    6.266;    9.200;    0.000
 361.80;   -0.844;   -4.000;    0.000
 361.96;    4.544;   14.400;    0.000
 362.13;    1.554;    3.400;    0.000
 362.30;   -0.523;    3.067;    0.000
 362.46;    1.719;  -16.400;    0.000
 362.63;    6.305;    6.200;    0.000
 362.79;   10.489;   20.400;    0.000
 362.96;    9.226;    9.400;    0.000
 363.12;   10.767;   10.667;    0.000
 363.29;   18.284;    7.600;    0.000
 363.46;   14.702;   -8.200;    0.000
 363.62;   14.691;    7.733;    0.000
 363.79;   24.500;   23.267;    0.000
 363.95;   40.946;   -6.733;    0.000
 364.12;   53.359;   -3.733;    0.000
 364.29;  102.387;    9.067;    0.000
 364.45;  226.865;   -5.533;    0.000
 364.62;  638.238;    2.867;    0.000
 364.78; 2659.104;   12.400;    0.000
 364.95; 8756.257;    2.267;    0.000
 365.11; 9177.828;   -4.000;    0.000
 365.28; 2806.903;   12.133;    0.000
 365.45; 3085.569;    1.800;    0.000
 365.61; 2226.481;    3.333;    0.000
 365.78;  453.219;   -5.533;    0.000
 365.94;  262.035;   -5.733;    0.000
 366.11;  703.581;    5.067;    0.000
 366.27; 1943.713;    5.200;    0.000
 366.44; 1631.158;    2.533;    0.000
 366.61;  287.186;   13.400;    0.000
 366.77;   70.805;   -1.800;    0.000
 366.94;   35.045;   -5.200;    0.000
 367.10;   19.580;    4.800;    0.000
 367.27;   12.313;   -5.467;    0.000
 367.43;    7.682;    4.867;    0.000
 367.60;   10.669;    8.133;    0.000
 367.77;    2.946;    8.133;    0.000
 367.93;    4.129;  -11.133;    0.000
 368.10;    5.976;    8.533;    0.000
 368.26;   12.373;   -3.933;    0.000
 368.43;    8.900;   10.000;    0.000
 368.59;    6.262;   -7.267;    0.000
 368.76;   14.248;  -10.067;    0.000
 368.92;    9.898;    4.267;    0.000
 369.09;    1.068;    5.133;    0.000
 369.26;    2.401;    4.933;    0.000
 369.42;    7.680;    6.467;    0.000
 369.59;    7.907;  -11.667;    0.000
 369.75;    9.890;    9.867;    0.000
 369.92;    4.081;   12.200;    0.000
 370.08;    5.694;  -20.533;    0.000
 370.25;    9.356;  -14.467;    0.000
 370.42;    1.484;   -4.600;    0.000
 370.58;    8.107;   22.133;    0.000
 370.75;   10.630;   -9.267;    0.000
 370.91;    0.895;   25.667;    0.000
 371.08;    1.208;   -7.533;    0.000
 371.24;    3.375;   -0.533;    0.000
 371.41;    2.520;   -0.533;    0.000
 371.57;    5.964;   19.733;    0.000
 371.74;    8.137;   -1.467;    0.000
 371.90;    0.264;    4.200;    0.000
 372.07;   11.054;    8.067;    0.000
 372.24;    3.962;  -14.200;    0.000
 372.40;   -1.027;   -0.400;    0.000
 372.57;   -3.352;   -1.467;    0.000
 372.73;   -5.084;    6.800;    0.000
 372.90;    2.181;   19.800;    0.000
 373.06;    0.753;   -0.867;    0.000
 373.23;    6.479;    1.867;    0.000
 373.39;    8.886;    2.800;    0.000
 373.56;    3.450;    7.333;    0.000
 373.73;    1.566;    4.733;    0.000
 373.89;    4.258;   18.333;    0.000
 374.06;   -1.233;   -7.733;    0.000
 374.22;    5.899;  -11.467;    0.000
 374.39;    5.895;   -4.400;    0.000
 374.55;    7.650;   -4.667;    0.000
 374.72;    2.696;   -3.667;    0.000
 374.88;    4.135;    5.267;    0.000
 375.05;    1.298;  -16.733;    0.000
 375.21;    4.715;   18.067;    0.000
 375.38;    2.166;   13.333;    0.000
 375.54;    4.190;  -15.000;    0.000
 375.71;   -7.529;  -22.333;    0.000
 375.88;    6.441;   12.600;    0.000
 376.04;   -1.634;   17.400;    0.000
 376.21;    4.753;   -7.267;    0.000
 376.37;   -2.366;    6.600;    0.000
 376.54;   15.223;   17.267;    0.000
 376.70;    1.972;  -20.067;    0.000
 376.87;    8.897;    9.333;    0.000
 377.03;   -4.075;   21.667;    0.000
 377.20;    1.345;    8.067;    0.000
 377.36;   -2.325;   10.867;    0.000
 377.53;    1.201;   -4.467;    0.000
 377.69;    1.783;  -14.933;    0.000
 377.86;    3.788;    7.267;    0.000
 378.02;    5.432;    1.533;    0.000
 378.19;    5.174;   17.467;    0.000
 378.35;    4.994;  -12.467;    0.000
 378.52;    1.606;    1.133;    0.000
 378.69;    7.760;   -2.067;    0.000
 378.85;    2.141;   -8.000;    0.000
 379.02;    1.853;   10.200;    0.000
 379.18;    3.893;   -1.067;    0.000
 379.35;    4.269;  -19.067;    0.000
 379.51;    5.750;   -1.000;    0.000
 379.68;    0.480;   14.000;    0.000
 379.84;   -2.145;    3.200;    0.000
 380.01;   -2.745;   13.467;    0.000
 380.17;    3.363;   -0.533;    0.000
 380.34;   -4.131;   -2.933;    0.000
 380.50;    0.677;    4.467;    0.000
 380.67;   -1.289;    0.000;    0.000
 380.83;   10.673;    4.933;    0.000
 381.00;    1.047;  -13.133;    0.000
 381.16;    6.665;    8.933;    0.000
 381.33;    7.218;    0.600;    0.000
 381.49;    7.708;    4.133;    0.000
 381.66;    8.899;    9.733;    0.000
 381.82;    3.249;    6.800;    0.000
 381.99;   -2.549;    7.200;    0.000
 382.15;    7.459;   19.867;    0.000
 382.32;    1.804;   17.933;    0.000
 382.48;    1.924;    9.933;    0.000
 382.65;   -3.166;    8.400;    0.000
 382.81;    4.228;   13.933;    0.000
 382.98;   -2.195;  -11.600;    0.000
 383.14;    6.750;   19.733;    0.000
 383.31;    2.900;  -15.467;    0.000
 383.47;    0.851;    4.933;    0.000
 383.64;   -5.780;   -4.200;    0.000
 383.80;    3.161;  -11.733;    0.000
 383.97;    5.464;   -7.467;    0.000
 384.13;    8.894;   24.733;    0.000
 384.30;   -0.409;   -2.267;    0.000
 384.46;   -0.100;   -2.400;    0.000
 384.63;    1.135;   -0.800;    0.000
 384.79;    5.123;   13.600;    0.000
 384.96;    6.154;    4.733;    0.000
 385.12;   10.539;    3.533;    0.000
 385.29;   -3.442;   -2.267;    0.000
 385.45;    0.504;   15.933;    0.000
 385.62;    3.675;   -1.200;    0.000
 385.78;  -10.409;    7.200;    0.000
 385.95;    4.538;    2.867;    0.000
 386.11;    6.127;    7.800;    0.000
 386.28;    3.600;   -0.400;    0.000
 386.44;   -1.419;    7.200;    0.000
 386.61;    3.816;    3.267;    0.000
 386.77;   -1.955;    7.867;    0.000
 386.94;    4.200;   34.067;    0.000
 387.10;    1.747;    7.733;    0.000
 387.27;    2.764;   -7.000;    0.000
 387.43;    4.061;   23.200;    0.000
 387.60;    2.308;   -2.667;    0.000
 387.76;    6.164;    5.733;    0.000
 387.93;    1.977;   -2.133;    0.000
 388.09;    5.256;    2.267;    0.000
 388.26;   -2.820;   -3.933;    0.000
 388.42;   -1.735;   14.800;    0.000
 388.59;    0.275;   -4.200;    0.000
 388.75;    2.656;   13.400;    0.000
 388.92;   -5.810;    4.533;    0.000
 389.08;    1.880;   -1.733;    0.000
 389.25;    3.764;   -6.600;    0.000
 389.41;    0.976;   12.133;    0.000
 389.58;    5.260;   15.333;    0.000
 389.74;    2.946;   11.267;    0.000
 389.91;    3.430;   -2.800;    0.000
 390.07;   12.650;    6.067;    0.000
 390.24;   16.060;  -17.867;    0.000
 390.40;   15.796;  -13.733;    0.000
 390.57;   33.026;    5.400;    0.000
 390.73;   26.812;   22.867;    0.000
 390.90;    8.908;   -2.200;    0.000
 391.06;    3.758;   -5.267;    0.000
 391.23;    5.186;  -14.667;    0.000
 391.39;    5.134;   14.200;    0.000
 391.55;    3.407;    2.400;    0.000
 391.72;    8.506;   10.933;    0.000
 391.88;   -1.434;    1.267;    0.000
 392.05;   13.501;    7.867;    0.000
 392.21;    7.415;   19.000;    0.000
 392.38;   -0.338;  -13.867;    0.000
 392.54;    1.792;    1.467;    0.000
 392.71;    6.312;    5.667;    0.000
 392.87;    8.076;   -8.667;    0.000
 393.04;   10.570;   13.333;    0.000
 393.20;    2.787;    4.000;    0.000
 393.37;    4.465;    2.267;    0.000
 393.53;    2.859;    4.400;    0.000
 393.70;    0.570;   -4.333;    0.000
 393.86;    6.094;  -10.733;    0.000
 394.03;    4.222;  -13.467;    0.000
 394.19;    4.239;   11.333;    0.000
 394.35;    7.023;    0.200;    0.000
 394.52;    6.760;    2.200;    0.000
 394.68;    0.079;   14.667;    0.000
 394.85;    8.253;   15.400;    0.000
 395.01;   -0.217;   10.400;    0.000
 395.18;   -0.139;    6.600;    0.000
 395.34;    7.994;   -8.400;    0.000
 395.51;   -1.687;    1.067;    0.000
 395.67;    1.923;    9.333;    0.000
 395.84;    3.712;   -0.600;    0.000
 396.00;    1.080;    3.933;    0.000
 396.17;   -1.643;   -3.467;    0.000
 396.33;   -1.857;   11.733;    0.000
 396.49;    4.559;   -6.533;    0.000
 396.66;    5.631;    6.800;    0.000
 396.82;    6.678;   20.867;    0.000
 396.99;    4.434;   12.933;    0.000
 397.15;    5.514;   17.733;    0.000
 397.32;    6.304;    7.933;    0.000
 397.48;    4.856;   -4.200;    0.000
 397.65;    4.803;    3.867;    0.000
 397.81;    3.281;   -2.867;    0.000
 397.97;    5.084;    8.933;    0.000
 398.14;   16.083;   -9.933;    0.000
 398.30;   46.974;   11.467;    0.000
 398.47;   39.633;    4.000;    0.000
 398.63;    7.661;   -3.400;    0.000
 398.80;    4.250;   -3.933;    0.000
 398.96;    2.497;    5.667;    0.000
 399.13;    2.480;   -7.467;    0.000
 399.29;    0.580;  -19.533;    0.000
 399.46;    6.242;  -20.067;    0.000
 399.62;    1.591;    6.200;    0.000
 399.78;    4.043;  -13.733;    0.000
 399.95;    3.245;   21.133;    0.000
 400.11;    5.419;    4.467;    0.000
 400.28;    1.403;   16.800;    0.000
 400.44;    7.604;    9.933;    0.000
 400.61;    8.040;   17.600;    0.000
 400.77;    0.518;    5.867;    0.000
 400.93;    4.805;   16.667;    0.000
 401.10;    3.019;   -4.600;    0.000
 401.26;    4.667;    4.267;    0.000
 401.43;   -0.674;   15.733;    0.000
 401.59;    1.961;    1.800;    0.000
 401.76;    4.506;    8.200;    0.000
 401.92;    3.073;   -1.933;    0.000
 402.09;   13.248;   14.800;    0.000
 402.25;    6.904;   -3.333;    0.000
 402.41;    8.113;   12.333;    0.000
 402.58;   11.711;    3.000;    0.000
 402.74;   15.936;  -12.333;    0.000
 402.91;   12.309;    4.400;    0.000
 403.07;   31.952;  -13.733;    0.000
 403.24;   46.466;   14.467;    0.000
 403.40;   48.794;  -11.133;    0.000
 403.56;   63.171;   -0.667;    0.000
 403.73;   89.405;   15.467;    0.000
 403.89;  145.294;   -6.533;    0.000
 404.06;  304.117;    2.267;    0.000
 404.22;  852.032;   -2.733;    0.000
 404.39; 4172.229;    1.600;    0.000
 404.55;17284.707;    3.133;    0.000
 404.71;17810.153;    3.267;    0.000
 404.88; 3657.296;   -0.267;    0.000
 405.04;  706.566;   13.200;    0.000
 405.21;  279.496;   22.933;    0.000
 405.37;  150.480;   23.933;    0.000
 405.53;   79.898;   15.267;    0.000
 405.70;   61.173;   -5.667;    0.000
 405.86;   41.594;   13.933;    0.000
 406.03;   35.728;   12.667;    0.000
 406.19;   38.383;    4.600;    0.000
 406.36;   27.185;    2.600;    0.000
 406.52;   23.199;   15.267;    0.000
 406.68;   22.676;   -5.133;    0.000
 406.85;   24.907;   23.467;    0.000
 407.01;   31.924;   14.733;    0.000
 407.18;   40.050;   -3.200;    0.000
 407.34;   93.484;   15.000;    0.000
 407.50;  358.432;   20.733;    0.000
 407.67; 1491.573;   27.333;    0.000
 407.83; 1630.488;    8.867;    0.000
 408.00;  334.894;    9.867;    0.000
 408.16;   76.162;    0.600;    0.000
 408.33;   33.155;    8.000;    0.000
 408.49;   15.993;    9.200;    0.000
 408.65;   15.356;    4.200;    0.000
 408.82;   17.908;    8.467;    0.000
 408.98;    8.959;   -7.400;    0.000
 409.15;   10.361;    7.267;    0.000
 409.31;    7.176;   -8.467;    0.000
 409.47;   15.491;   -3.600;    0.000
 409.64;   14.150;   -1.933;    0.000
 409.80;   13.499;   22.000;    0.000
 409.97;   10.275;    9.333;    0.000
 410.13;    7.741;   -4.867;    0.000
 410.29;   11.198;   -5.467;    0.000
 410.46;   12.291;    5.667;    0.000
 410.62;   15.293;   -5.200;    0.000
 410.79;   16.323;   17.133;    0.000
 410.95;    8.616;    3.800;    0.000
 411.11;   11.152;    2.133;    0.000
 411.28;    5.906;   -8.933;    0.000
 411.44;    8.822;   20.400;    0.000
 411.61;    6.307;   14.467;    0.000
 411.77;    4.547;    9.800;    0.000
 411.93;   -0.407;   12.733;    0.000
 412.10;    9.108;   12.533;    0.000
 412.26;    4.852;  -12.400;    0.000
 412.43;    4.684;    4.200;    0.000
 412.59;    9.231;   -0.333;    0.000
 412.75;    6.555;    5.733;    0.000
 412.92;    6.684;    8.933;    0.000
 413.08;    7.703;   12.200;    0.000
 413.24;    5.421;  -18.667;    0.000
 413.41;    3.043;   20.867;    0.000
 413.57;    2.396;   13.200;    0.000
 413.74;    9.211;   24.133;    0.000
 413.90;    4.111;   -1.200;    0.000
 414.06;    0.004;   -3.400;    0.000
 414.23;    0.134;    4.733;    0.000
 414.39;    9.841;   15.800;    0.000
 414.56;    6.508;    2.000;    0.000
 414.72;    8.907;   28.533;    0.000
 414.88;   -0.691;   -0.333;    0.000
 415.05;   -2.422;    4.200;    0.000
 415.21;    8.318;   -4.733;    0.000
 415.37;    3.108;   26.067;    0.000
 415.54;    3.370;    4.600;    0.000
 415.70;    7.898;   10.600;    0.000
 415.87;    8.533;   12.600;    0.000
 416.03;    5.976;    0.667;    0.000
 416.19;   -2.752;   -8.733;    0.000
 416.36;    2.378;    4.267;    0.000
 416.52;    1.862;    1.800;    0.000
 416.69;    3.822;    3.733;    0.000
 416.85;    0.429;    2.533;    0.000
 417.01;    4.632;   10.200;    0.000
 417.18;    2.231;   13.667;    0.000
 417.34;    5.000;    5.200;    0.000
 417.50;    8.202;  -10.733;    0.000
 417.67;    1.474;    6.200;    0.000
 417.83;   10.322;   -0.867;    0.000
 418.00;    5.160;   16.867;    0.000
 418.16;    2.134;   25.800;    0.000
 418.32;    5.351;    9.667;    0.000
 418.49;    4.291;   12.267;    0.000
 418.65;    5.537;    0.200;    0.000
 418.81;    4.456;   13.667;    0.000
 418.98;    0.359;    3.867;    0.000
 419.14;   -1.850;    5.600;    0.000
 419.30;    6.950;   30.400;    0.000
 419.47;    6.637;   13.467;    0.000
 419.63;    6.101;    0.067;    0.000
 419.80;    0.628;   10.800;    0.000
 419.96;    3.837;   -5.267;    0.000
 420.12;    2.115;   14.600;    0.000
 420.29;    2.789;    7.000;    0.000
 420.45;    3.273;   -4.667;    0.000
 420.61;    9.493;   19.867;    0.000
 420.78;    0.456;    8.333;    0.000
 420.94;   -3.531;   -3.600;    0.000
 421.10;    8.244;    6.533;    0.000
 421.27;    7.267;    4.000;    0.000
 421.43;   -6.731;    4.467;    0.000
 421.59;    3.124;   -4.667;    0.000
 421.76;    7.499;   -6.400;    0.000
 421.92;    4.998;   21.333;    0.000
 422.09;    1.110;  -14.067;    0.000
 422.25;    2.218;   26.133;    0.000
 422.41;    2.413;    6.267;    0.000
 422.58;    7.197;   24.800;    0.000
 422.74;    7.524;    7.933;    0.000
 422.90;    2.911;   17.400;    0.000
 423.07;    1.421;    9.733;    0.000
 423.23;    7.207;   -0.467;    0.000
 423.39;    8.773;  -16.933;    0.000
 423.56;    1.485;   -5.400;    0.000
 423.72;   13.457;   -0.533;    0.000
 423.88;   11.252;    2.067;    0.000
 424.05;    5.252;    5.000;    0.000
 424.21;    7.426;   17.133;    0.000
 424.37;    6.346;   -0.400;    0.000
 424.54;    4.972;   20.267;    0.000
 424.70;    7.233;    0.933;    0.000
 424.86;    5.601;   -5.933;    0.000
 425.03;    5.836;   -1.533;    0.000
 425.19;    4.609;    1.733;    0.000
 425.35;   -4.282;    6.400;    0.000
 425.52;   10.602;    8.600;    0.000
 425.68;    8.120;   -5.533;    0.000
 425.84;   -0.429;    4.667;    0.000
 426.01;    5.630;   -2.400;    0.000
 426.17;    7.977;   21.933;    0.000
 426.33;    4.794;   12.067;    0.000
 426.50;   -2.925;   -5.000;    0.000
 426.66;    8.756;   10.533;    0.000
 426.83;    4.789;   14.667;    0.000
 426.99;   10.460;    3.667;    0.000
 427.15;    6.142;   19.667;    0.000
 427.32;    7.341;    2.600;    0.000
 427.48;    6.417;   19.933;    0.000
 427.64;    4.165;   -6.000;    0.000
 427.80;    8.802;   -4.867;    0.000
 427.97;    6.977;   19.800;    0.000
 428.13;   11.080;   -2.867;    0.000
 428.29;    3.078;    2.200;    0.000
 428.46;   13.249;   23.667;    0.000
 428.62;    4.350;   15.133;    0.000
 428.78;    9.286;   -8.667;    0.000
 428.95;   13.071;   12.333;    0.000
 429.11;   10.272;   -5.867;    0.000
 429.27;   12.825;    3.267;    0.000
 429.44;   10.070;    2.267;    0.000
 429.60;    7.777;   -2.867;    0.000
 429.76;   15.139;   16.400;    0.000
 429.93;   10.350;  -16.467;    0.000
 430.09;   10.509;   23.400;    0.000
 430.25;    7.473;   23.267;    0.000
 430.42;    6.136;   13.267;    0.000
 430.58;   -2.509;    9.467;    0.000
 430.74;    3.539;    4.600;    0.000
 430.91;    6.009;   -4.067;    0.000
 431.07;    8.779;   19.333;    0.000
 431.23;    8.952;   20.867;    0.000
 431.40;    9.735;   14.533;    0.000
 431.56;   10.330;    8.400;    0.000
 431.72;   20.964;    9.933;    0.000
 431.89;   12.351;    0.667;    0.000
 432.05;    9.917;    1.867;    0.000
 432.21;   11.422;   -3.333;    0.000
 432.37;   15.766;    5.267;    0.000
 432.54;    2.257;    8.133;    0.000
 432.70;   14.251;   21.000;    0.000
 432.86;   19.392;    3.667;    0.000
 433.03;   10.546;   10.733;    0.000
 433.19;   19.172;    1.267;    0.000
 433.35;   25.997;   12.067;    0.000
 433.52;   30.045;   16.467;    0.000
 433.68;   58.519;   26.933;    0.000
 433.84;  127.704;    9.400;    0.000
 434.01;   91.922;   10.800;    0.000
 434.17;   70.627;    1.800;    0.000
 434.33;   90.899;   26.000;    0.000
 434.49;  157.425;    4.933;    0.000
 434.66;  365.116;  -11.333;    0.000
 434.82;  321.574;   -0.800;    0.000
 434.98;  258.716;    6.600;    0.000
 435.15;  451.228;    8.267;    0.000
 435.31; 1043.440;   10.133;    0.000
 435.47; 3854.773;   -7.067;    0.000
 435.64;23543.604;    8.133;    0.000
 435.80;44773.722;   15.933;    0.000
 435.96;18962.529;   11.800;    0.000
 436.12; 3285.508;   -0.933;    0.000
 436.29;  910.143;  -13.933;    0.000
 436.45;  488.656;   12.400;    0.000
 436.61;  233.039;   -4.600;    0.000
 436.78;  196.647;   -0.933;    0.000
 436.94;  109.297;   15.200;    0.000
 437.10;  120.938;   11.733;    0.000
 437.26;   63.392;   11.000;    0.000
 437.43;   89.222;    5.067;    0.000
 437.59;   53.176;   49.000;    0.000
 437.75;   60.395;  -10.600;    0.000
 437.92;   34.360;    0.067;    0.000
 438.08;   55.773;    2.933;    0.000
 438.24;   21.635;   13.267;    0.000
 438.41;   44.906;   10.133;    0.000
 438.57;   28.587;   10.200;    0.000
 438.73;   34.362;   -4.533;    0.000
 438.89;   28.155;    6.800;    0.000
 439.06;   39.739;    0.733;    0.000
 439.22;   28.085;   11.200;    0.000
 439.38;   23.121;   11.267;    0.000
 439.54;   16.502;   -5.400;    0.000
 439.71;   27.951;   11.867;    0.000
 439.87;   17.181;   13.467;    0.000
 440.03;   25.055;   25.400;    0.000
 440.20;   19.298;   13.533;    0.000
 440.36;   24.601;    9.400;    0.000
 440.52;   17.049;   18.000;    0.000
 440.68;   19.815;   -3.400;    0.000
 440.85;   18.466;   14.200;    0.000
 441.01;   23.173;    5.733;    0.000
 441.17;    7.354;   13.267;    0.000
 441.34;   15.497;   -4.667;    0.000
 441.50;   16.162;   27.000;    0.000
 441.66;   24.909;    3.533;    0.000
 441.82;   10.314;   17.600;    0.000
 441.99;   16.656;    3.800;    0.000
 442.15;    7.209;   13.533;    0.000
 442.31;   15.192;    5.400;    0.000
 442.47;    9.024;   14.000;    0.000
 442.64;   17.363;  -19.067;    0.000
 442.80;   10.104;    1.333;    0.000
 442.96;   14.981;   20.200;    0.000
 443.13;   14.940;    6.800;    0.000
 443.29;   13.309;   -3.333;    0.000
 443.45;   13.631;   25.000;    0.000
 443.61;    9.185;    6.400;    0.000
 443.78;    8.215;   12.067;    0.000
 443.94;   15.146;    5.000;    0.000
 444.10;    7.254;   -2.867;    0.000
 444.26;   13.602;    3.600;    0.000
 444.43;   12.014;  -19.067;    0.000
 444.59;   11.949;   -4.933;    0.000
 444.75;   13.373;   12.533;    0.000
 444.91;   16.110;    5.133;    0.000
 445.08;    2.020;   10.867;    0.000
 445.24;   10.409;   -2.000;    0.000
 445.40;    7.284;    7.733;    0.000
 445.56;   11.116;   16.533;    0.000
 445.73;    5.668;    6.533;    0.000
 445.89;   14.856;    0.600;    0.000
 446.05;   12.362;  -20.333;    0.000
 446.21;   11.833;   16.867;    0.000
 446.38;    1.447;    9.400;    0.000
 446.54;   14.879;   -1.133;    0.000
 446.70;    6.991;   19.467;    0.000
 446.86;   13.618;    1.067;    0.000
 447.03;    7.370;    1.733;    0.000
 447.19;   10.476;   -5.200;    0.000
 447.35;    2.595;    5.000;    0.000
 447.51;   10.153;    3.733;    0.000
 447.68;    8.465;    1.133;    0.000
 447.84;   12.969;    0.600;    0.000
 448.00;    4.337;    7.267;    0.000
 448.16;    5.904;   24.733;    0.000
 448.33;    9.548;   13.200;    0.000
 448.49;    5.702;    1.533;    0.000
 448.65;   11.590;   19.667;    0.000
 448.81;    0.700;    1.600;    0.000
 448.98;    7.407;   -0.867;    0.000
 449.14;    9.222;   -8.333;    0.000
 449.30;   11.896;    6.000;    0.000
 449.46;    4.025;   10.600;    0.000
 449.63;    5.013;   12.733;    0.000
 449.79;    9.633;   14.600;    0.000
 449.95;    5.141;    7.333;    0.000
 450.11;    0.705;  -10.400;    0.000
 450.28;    7.073;   -1.000;    0.000
 450.44;    6.398;   -0.200;    0.000
 450.60;    4.082;    3.400;    0.000
 450.76;   17.529;    5.200;    0.000
 450.93;    9.964;    7.667;    0.000
 451.09;   17.329;  -14.267;    0.000
 451.25;    7.605;   -4.867;    0.000
 451.41;    7.135;   -3.600;    0.000
 451.57;   10.298;   -6.200;    0.000
 451.74;    7.454;   14.933;    0.000
 451.90;   -0.499;    4.733;    0.000
 452.06;   10.831;   15.467;    0.000
 452.22;    7.155;    9.733;    0.000
 452.39;   11.759;   -3.200;    0.000
 452.55;    3.706;   22.267;    0.000
 452.71;    3.998;    0.000;    0.000
 452.87;    6.551;   -2.000;    0.000
 453.03;    4.027;   12.533;    0.000
 453.20;    3.360;   10.933;    0.000
 453.36;   14.348;  -10.200;    0.000
 453.52;    7.542;    8.867;    0.000
 453.68;    6.878;    5.800;    0.000
 453.85;    1.379;   14.533;    0.000
 454.01;    8.029;   17.400;    0.000
 454.17;    9.928;   25.267;    0.000
 454.33;    3.883;   -9.800;    0.000
 454.49;    9.077;   17.467;    0.000
 454.66;    3.879;   16.867;    0.000
 454.82;    5.768;   14.333;    0.000
 454.98;    6.061;   13.133;    0.000
 455.14;    7.279;   15.000;    0.000
 455.31;    8.933;   -8.333;    0.000
 455.47;    7.085;    2.733;    0.000
 455.63;    4.263;   -8.467;    0.000
 455.79;    1.720;   -5.067;    0.000
 455.95;    2.720;   -1.667;    0.000
 456.12;   -4.760;   -0.800;    0.000
 456.28;    2.883;   11.733;    0.000
 456.44;    4.831;    4.267;    0.000
 456.60;    3.890;   -3.067;    0.000
 456.76;    2.992;   -2.667;    0.000
 456.93;    7.844;   18.067;    0.000
 457.09;    2.424;  -11.000;    0.000
 457.25;    3.941;    0.067;    0.000
 457.41;    5.214;   29.533;    0.000
 457.57;    5.324;   -6.533;    0.000
 457.74;    4.822;    8.400;    0.000
 457.90;    7.369;   19.533;    0.000
 458.06;   -1.746;   23.533;    0.000
 458.22;   10.459;   19.200;    0.000
 458.39;    9.581;    2.800;    0.000
 458.55;    4.996;    1.533;    0.000
 458.71;    2.926;    9.467;    0.000
 458.87;   -3.947;  -10.000;    0.000
 459.03;    3.637;   -6.800;    0.000
 459.20;    8.732;   14.400;    0.000
 459.36;   -4.227;   -7.000;    0.000
 459.52;    0.739;   -3.867;    0.000
 459.68;    5.359;   10.867;    0.000
 459.84;    5.310;    1.200;    0.000
 460.00;    7.068;   25.267;    0.000
 460.17;    9.597;   11.067;    0.000
 460.33;    0.726;   16.000;    0.000
 460.49;   -0.560;   -1.133;    0.000
 460.65;   -1.153;    8.333;    0.000
 460.81;    8.009;   17.400;    0.000
 460.98;    4.440;   -7.733;    0.000
 461.14;    9.916;    4.867;    0.000
 461.30;    5.679;   -8.333;    0.000
 461.46;    1.126;   19.333;    0.000
 461.62;    7.251;   -3.133;    0.000
 461.79;    3.810;   -0.267;    0.000
 461.95;   -0.063;    7.000;    0.000
 462.11;    4.891;   18.667;    0.000
 462.27;    4.838;   -8.267;    0.000
 462.43;    0.221;    4.400;    0.000
 462.60;   -1.896;   14.200;    0.000
 462.76;    7.386;   -0.133;    0.000
 462.92;    1.476;   -1.000;    0.000
 463.08;    1.698;    3.067;    0.000
 463.24;    4.641;   11.267;    0.000
 463.40;    5.316;   15.133;    0.000
 463.57;    9.597;   20.600;    0.000
 463.73;   -1.224;  -17.133;    0.000
 463.89;   -2.979;  -16.133;    0.000
 464.05;    3.186;   12.267;    0.000
 464.21;    0.188;   15.933;    0.000
 464.37;    5.179;   20.867;    0.000
 464.54;    5.135;   -1.267;    0.000
 464.70;   -2.036;   -4.267;    0.000
 464.86;    3.662;    3.600;    0.000
 465.02;    9.358;   -2.800;    0.000
 465.18;    6.952;   34.133;    0.000
 465.35;    5.577;    1.400;    0.000
 465.51;    4.819;    7.933;    0.000
 465.67;   -0.866;   -4.467;    0.000
 465.83;    2.502;   12.533;    0.000
 465.99;    9.135;    2.733;    0.000
 466.15;    3.166;   -0.600;    0.000
 466.32;    5.881;    9.733;    0.000
 466.48;    7.610;    9.400;    0.000
 466.64;    5.101;  -10.733;    0.000
 466.80;    4.320;   18.867;    0.000
 466.96;   -1.145;  -12.933;    0.000
 467.12;    9.487;   11.000;    0.000
 467.29;    9.005;    5.467;    0.000
 467.45;    6.676;    1.000;    0.000
 467.61;    2.723;   16.867;    0.000
 467.77;   11.457;   -4.800;    0.000
 467.93;   -2.799;    6.867;    0.000
 468.09;    4.698;   15.933;    0.000
 468.25;    3.959;   15.000;    0.000
 468.42;   -3.561;    9.933;    0.000
 468.58;   -4.579;   19.400;    0.000
 468.74;    5.528;   14.400;    0.000
 468.90;   -0.548;   11.800;    0.000
 469.06;   -0.767;   18.333;    0.000
 469.22;   -1.709;   16.733;    0.000
 469.39;    9.183;    4.867;    0.000
 469.55;    3.192;    1.467;    0.000
 469.71;    5.056;    2.133;    0.000
 469.87;    0.398;    7.067;    0.000
 470.03;    1.214;   11.867;    0.000
 470.19;    2.284;   -9.333;    0.000
 470.35;    8.804;   10.467;    0.000
 470.52;    2.960;    7.000;    0.000
 470.68;    4.413;   15.200;    0.000
 470.84;    6.672;  -13.800;    0.000
 471.00;   -2.480;    7.267;    0.000
 471.16;    1.243;    9.333;    0.000
 471.32;   -0.385;    9.333;    0.000
 471.49;    1.322;   20.000;    0.000
 471.65;   12.203;   -1.467;    0.000
 471.81;    0.749;   11.667;    0.000
 471.97;    2.973;   16.933;    0.000
 472.13;    4.514;    4.933;    0.000
 472.29;    5.086;   19.000;    0.000
 472.45;    3.700;  -14.133;    0.000
 472.62;    3.614;   10.133;    0.000
 472.78;    5.774;  -11.533;    0.000
 472.94;    5.298;    5.600;    0.000
 473.10;    7.648;  -12.200;    0.000
 473.26;   -1.764;    5.933;    0.000
 473.42;    9.871;   -3.667;    0.000
 473.58;    0.529;   12.800;    0.000
 473.74;    3.375;    8.000;    0.000
 473.91;    6.290;   12.333;    0.000
 474.07;    6.412;    8.200;    0.000
 474.23;    2.839;   -4.800;    0.000
 474.39;   10.506;   23.733;    0.000
 474.55;   -3.586;   12.933;    0.000
 474.71;    0.022;   -6.800;    0.000
 474.87;    4.032;    1.533;    0.000
 475.04;    3.467;  -20.600;    0.000
 475.20;    6.535;    1.067;    0.000
 475.36;    5.254;   16.067;    0.000
 475.52;    3.189;   16.533;    0.000
 475.68;    1.322;    7.600;    0.000
 475.84;    4.624;   13.733;    0.000
 476.00;   -3.603;   12.000;    0.000
 476.16;   -2.186;    3.467;    0.000
 476.33;    5.661;    5.067;    0.000
 476.49;    3.844;   26.000;    0.000
 476.65;    6.222;    2.333;    0.000
 476.81;   -1.051;   19.067;    0.000
 476.97;   -2.606;    7.133;    0.000
 477.13;    2.978;    1.533;    0.000
 477.29;   -0.477;   20.200;    0.000
 477.45;    6.933;    4.267;    0.000
 477.61;    5.804;    5.133;    0.000
 477.78;    4.614;   16.400;    0.000
 477.94;   -2.451;    3.800;    0.000
 478.10;    6.622;    0.733;    0.000
 478.26;    8.993;    5.067;    0.000
 478.42;    4.527;   -2.467;    0.000
 478.58;    8.173;   -4.467;    0.000
 478.74;    3.803;    3.600;    0.000
 478.90;    0.597;    0.933;    0.000
 479.07;    3.340;   -9.400;    0.000
 479.23;    6.871;   20.400;    0.000
 479.39;    5.464;    1.533;    0.000
 479.55;    4.483;   14.800;    0.000
 479.71;    6.756;   -4.933;    0.000
 479.87;    4.098;   12.267;    0.000
 480.03;    0.873;    6.133;    0.000
 480.19;    4.543;    9.800;    0.000
 480.35;    3.415;   15.467;    0.000
 480.51;    8.054;    3.267;    0.000
 480.68;   -2.233;    1.200;    0.000
 480.84;    4.971;   26.333;    0.000
 481.00;    6.263;    1.133;    0.000
 481.16;   -1.138;   13.333;    0.000
 481.32;    5.420;   13.667;    0.000
 481.48;    4.403;    7.933;    0.000
 481.64;    4.699;    8.267;    0.000
 481.80;    8.957;   -1.200;    0.000
 481.96;    8.531;   12.667;    0.000
 482.13;    2.766;   -4.667;    0.000
 482.29;    3.940;   12.933;    0.000
 482.45;    5.054;    9.533;    0.000
 482.61;   -0.840;   10.400;    0.000
 482.77;    1.604;   -4.133;    0.000
 482.93;    6.191;    4.600;    0.000
 483.09;    2.333;   20.200;    0.000
 483.25;    1.296;   -1.867;    0.000
 483.41;    0.579;   11.000;    0.000
 483.57;    3.014;    3.333;    0.000
 483.73;    9.227;  -11.400;    0.000
 483.90;    3.149;   14.000;    0.000
 484.06;    8.075;   -5.800;    0.000
 484.22;    2.117;    3.933;    0.000
 484.38;    3.719;   -4.067;    0.000
 484.54;    7.591;   20.267;    0.000
 484.70;    6.940;   24.267;    0.000
 484.86;    6.494;    4.000;    0.000
 485.02;    5.202;    0.667;    0.000
 485.18;    4.152;   -4.267;    0.000
 485.34;    0.432;   15.133;    0.000
 485.50;    3.105;   16.867;    0.000
 485.66;   10.324;   -3.867;    0.000
 485.83;    4.936;   -0.400;    0.000
 485.99;   -1.870;    7.000;    0.000
 486.15;    1.816;    4.667;    0.000
 486.31;   -2.695;    0.133;    0.000
 486.47;    0.832;   21.733;    0.000
 486.63;   -0.721;   -6.067;    0.000
 486.79;   -0.398;    9.067;    0.000
 486.95;    2.272;    9.467;    0.000
 487.11;    7.099;   13.800;    0.000
 487.27;    0.980;    4.067;    0.000
 487.43;    3.077;    4.733;    0.000
 487.59;    2.401;    0.867;    0.000
 487.75;    6.237;   13.733;    0.000
 487.92;    9.532;   -0.067;    0.000
 488.08;    1.906;    6.067;    0.000
 488.24;    5.072;   13.800;    0.000
 488.40;    1.547;    1.400;    0.000
 488.56;    2.815;   10.800;    0.000
 488.72;    6.323;   18.667;    0.000
 488.88;    1.488;    8.600;    0.000
 489.04;    7.020;   10.200;    0.000
 489.20;    3.465;    7.200;    0.000
 489.36;    8.289;    9.400;    0.000
 489.52;   -2.461;   -3.067;    0.000
 489.68;    4.350;   16.667;    0.000
 489.84;    5.566;    6.667;    0.000
 490.00;    9.960;    4.333;    0.000
 490.16;    9.044;    3.133;    0.000
 490.33;    1.242;   -6.933;    0.000
 490.49;    3.248;  -12.133;    0.000
 490.65;    3.593;    8.533;    0.000
 490.81;    6.304;    1.533;    0.000
 490.97;    6.878;   31.800;    0.000
 491.13;    4.501;   11.067;    0.000
 491.29;   33.162;   12.600;    0.000
 491.45;  168.715;    8.400;    0.000
 491.61;  158.904;   16.533;    0.000
 491.77;   44.984;    4.867;    0.000
 491.93;   11.061;   12.000;    0.000
 492.09;    4.873;    7.533;    0.000
 492.25;   10.389;   15.933;    0.000
 492.41;    4.050;    0.800;    0.000
 492.57;   11.541;   11.267;    0.000
 492.73;    5.509;    7.600;    0.000
 492.89;    3.771;   13.867;    0.000
 493.05;    1.300;   16.200;    0.000
 493.22;    8.309;   14.133;    0.000
 493.38;    0.462;   -1.400;    0.000
 493.54;    8.336;   -3.400;    0.000
 493.70;    2.047;   -4.867;    0.000
 493.86;    1.647;   24.267;    0.000
 494.02;    2.695;    8.200;    0.000
 494.18;    5.339;    1.133;    0.000
 494.34;    1.270;    3.533;    0.000
 494.50;   -2.172;   17.000;    0.000
 494.66;    2.178;   -3.867;    0.000
 494.82;    5.900;   14.800;    0.000
 494.98;    0.693;    5.000;    0.000
 495.14;   -1.402;   16.533;    0.000
 495.30;    2.919;    2.267;    0.000
 495.46;    8.593;   -2.933;    0.000
 495.62;   -0.955;  -14.867;    0.000
 495.78;   12.788;   11.867;    0.000
 495.94;   11.573;   13.867;    0.000
 496.10;   12.863;    0.667;    0.000
 496.26;   10.925;   -2.333;    0.000
 496.42;    7.362;    3.200;    0.000
 496.58;    1.839;   -4.000;    0.000
 496.74;    4.852;   10.133;    0.000
 496.90;    4.008;   -7.400;    0.000
 497.06;    1.308;   -1.600;    0.000
 497.22;    6.064;   21.133;    0.000
 497.38;    3.931;    0.200;    0.000
 497.55;    7.287;   -1.200;    0.000
 497.71;    6.065;   26.667;    0.000
 497.87;   -0.159;  -17.933;    0.000
 498.03;    3.717;   14.000;    0.000
 498.19;    3.785;   -0.200;    0.000
 498.35;    7.476;    7.933;    0.000
 498.51;   -3.716;    5.467;    0.000
 498.67;    3.827;   -2.933;    0.000
 498.83;   -2.911;    8.667;    0.000
 498.99;    0.103;   12.067;    0.000
 499.15;   -2.070;  -14.467;    0.000
 499.31;    5.439;   -2.133;    0.000
 499.47;    1.628;   -2.933;    0.000
 499.63;   11.845;   22.733;    0.000
 499.79;   -3.485;    9.667;    0.000
 499.95;    3.914;    5.067;    0.000
 500.11;   10.445;   13.333;    0.000
 500.27;    9.892;    0.067;    0.000
 500.43;    6.350;  -15.267;    0.000
 500.59;    8.549;  -20.133;    0.000
 500.75;    2.920;   -1.667;    0.000
 500.91;   10.313;   29.867;    0.000
 501.07;    1.755;   -1.067;    0.000
 501.23;    8.215;   13.133;    0.000
 501.39;    3.387;   23.600;    0.000
 501.55;   10.203;   -4.800;    0.000
 501.71;    6.523;   19.933;    0.000
 501.87;    0.443;   16.000;    0.000
 502.03;    5.695;  -16.933;    0.000
 502.19;   -2.188;   30.600;    0.000
 502.35;    0.545;   -9.000;    0.000
 502.51;    2.771;  -19.267;    0.000
 502.67;    9.631;    0.333;    0.000
 502.83;    9.051;   24.933;    0.000
 502.99;    5.930;   18.200;    0.000
 503.15;    4.963;   15.867;    0.000
 503.31;    1.697;   -6.333;    0.000
 503.47;    3.001;   -7.600;    0.000
 503.63;    4.919;    2.867;    0.000
 503.79;    5.761;   19.067;    0.000
 503.95;    4.207;   -3.667;    0.000
 504.11;    2.390;   -7.733;    0.000
 504.27;    3.305;   17.467;    0.000
 504.43;    4.283;   -2.867;    0.000
 504.59;    0.189;    3.333;    0.000
 504.75;    3.558;    1.067;    0.000
 504.91;    0.783;    4.400;    0.000
 505.07;    4.772;    8.267;    0.000
 505.23;    4.867;   -0.400;    0.000
 505.39;    2.394;    8.800;    0.000
 505.55;   10.506;    1.867;    0.000
 505.71;    1.118;    2.533;    0.000
 505.87;    5.091;   -2.200;    0.000
 506.03;    5.090;   33.133;    0.000
 506.19;    4.108;  -12.133;    0.000
 506.35;    4.773;    8.200;    0.000
 506.51;    2.146;   -8.000;    0.000
 506.67;   -2.255;   17.533;    0.000
 506.83;   -0.377;    6.067;    0.000
 506.99;    0.990;    8.067;    0.000
 507.15;    0.152;   12.333;    0.000
 507.31;    3.661;   11.800;    0.000
 507.47;   10.162;    0.200;    0.000
 507.63;    6.008;    7.933;    0.000
 507.79;    1.298;    4.133;    0.000
 507.95;    2.318;   -5.067;    0.000
 508.11;    6.522;   -0.933;    0.000
 508.27;    3.043;   -0.800;    0.000
 508.43;    3.687;    8.467;    0.000
 508.59;    1.362;   30.000;    0.000
 508.75;    3.384;   -2.133;    0.000
 508.91;    1.523;   -3.200;    0.000
 509.07;   -3.546;   15.733;    0.000
 509.23;    6.082;    5.467;    0.000
 509.39;   -2.324;  -15.933;    0.000
 509.55;    1.974;   13.400;    0.000
 509.71;    4.868;    0.933;    0.000
 509.86;    9.548;    4.267;    0.000
 510.02;    2.882;    3.667;    0.000
 510.18;    1.481;  -23.000;    0.000
 510.34;   14.829;    4.267;    0.000
 510.50;    1.138;   -4.200;    0.000
 510.66;   -3.171;   10.667;    0.000
 510.82;   -1.372;    6.000;    0.000
 510.98;    4.193;    6.400;    0.000
 511.14;    4.081;   -4.533;    0.000
 511.30;    4.887;  -18.200;    0.000
 511.46;   -4.028;   13.267;    0.000
 511.62;    6.591;   12.600;    0.000
 511.78;    7.667;   16.000;    0.000
 511.94;    7.024;   10.867;    0.000
 512.10;    7.177;    4.667;    0.000
 512.26;   11.094;    4.933;    0.000
 512.42;    5.247;    3.133;    0.000
 512.58;    5.516;   22.933;    0.000
 512.74;    3.617;   13.600;    0.000
 512.90;   -2.668;    8.867;    0.000
 513.06;    6.291;    0.733;    0.000
 513.22;    9.869;    5.067;    0.000
 513.38;    8.334;   -0.867;    0.000
 513.54;    1.895;    6.133;    0.000
 513.70;    1.271;   -6.067;    0.000
 513.86;    6.397;    9.867;    0.000
 514.01;   -0.122;   -9.600;    0.000
 514.17;    6.652;  -12.733;    0.000
 514.33;    0.868;   22.533;    0.000
 514.49;    2.663;  -17.133;    0.000
 514.65;    5.318;    6.933;    0.000
 514.81;    1.588;   13.133;    0.000
 514.97;   -6.720;    6.600;    0.000
 515.13;    3.271;   -4.467;    0.000
 515.29;    7.167;    1.000;    0.000
 515.45;    3.042;    6.400;    0.000
 515.61;   -2.661;   16.733;    0.000
 515.77;    4.751;    9.733;    0.000
 515.93;    7.042;   22.267;    0.000
 516.09;    7.306;   -5.067;    0.000
 516.25;    3.127;   19.733;    0.000
 516.41;    6.967;   14.133;    0.000
 516.57;    2.387;   10.733;    0.000
 516.73;    1.970;    1.600;    0.000
 516.89;    7.223;    9.867;    0.000
 517.04;    0.195;   -4.867;    0.000
 517.20;    1.820;   -2.467;    0.000
 517.36;    3.900;    3.800;    0.000
 517.52;    3.843;   13.467;    0.000
 517.68;    2.297;  -11.333;    0.000
 517.84;    3.270;   18.000;    0.000
 518.00;    4.626;   -2.733;    0.000
 518.16;    1.551;    6.333;    0.000
 518.32;    6.093;    2.733;    0.000
 518.48;    4.024;    0.933;    0.000
 518.64;    7.385;   -2.733;    0.000
 518.80;    5.555;   16.933;    0.000
 518.96;   -1.746;    1.533;    0.000
 519.12;    7.566;    6.533;    0.000
 519.28;   11.006;    6.867;    0.000
 519.43;    6.398;   16.000;    0.000
 519.59;    2.431;    0.867;    0.000
 519.75;    8.964;   17.333;    0.000
 519.91;    0.365;   -6.933;    0.000
 520.07;   -1.264;    1.133;    0.000
 520.23;    1.066;   15.467;    0.000
 520.39;    4.206;   16.400;    0.000
 520.55;    7.656;   -1.600;    0.000
 520.71;   -1.864;   11.000;    0.000
 520.87;    4.086;   -5.533;    0.000
 521.03;    4.626;   11.267;    0.000
 521.19;   -1.434;    3.267;    0.000
 521.34;    8.157;   22.733;    0.000
 521.50;   11.847;   -3.133;    0.000
 521.66;    6.127;    1.000;    0.000
 521.82;    6.407;    5.533;    0.000
 521.98;    2.987;    6.200;    0.000
 522.14;    1.907;    5.200;    0.000
 522.30;    0.927;   17.133;    0.000
 522.46;    1.657;  -12.333;    0.000
 522.62;    6.497;   11.800;    0.000
 522.78;   -2.322;   -4.867;    0.000
 522.94;    5.668;  -11.933;    0.000
 523.10;    3.368;    2.467;    0.000
 523.25;    3.568;    7.000;    0.000
 523.41;    3.188;    3.867;    0.000
 523.57;    8.098;    2.933;    0.000
 523.73;    1.648;    7.600;    0.000
 523.89;   -4.922;    1.067;    0.000
 524.05;    1.299;    0.600;    0.000
 524.21;    9.849;    6.333;    0.000
 524.37;    2.479;    6.200;    0.000
 524.53;    7.869;   10.600;    0.000
 524.69;    8.209;    1.333;    0.000
 524.84;    8.909;    5.200;    0.000
 525.00;    5.399;   14.400;    0.000
 525.16;   10.939;   16.133;    0.000
 525.32;    2.089;    3.200;    0.000
 525.48;    7.340;   20.133;    0.000
 525.64;    4.440;   -4.733;    0.000
 525.80;    6.960;    3.867;    0.000
 525.96;    1.170;  -13.867;    0.000
 526.12;    7.610;   -3.533;    0.000
 526.28;    2.030;    2.667;    0.000
 526.43;    7.630;    9.867;    0.000
 526.59;    5.730;    2.933;    0.000
 526.75;   11.391;   -9.467;    0.000
 526.91;    4.281;   10.333;    0.000
 527.07;   10.851;   -0.200;    0.000
 527.23;    6.381;    2.733;    0.000
 527.39;    9.831;   -0.667;    0.000
 527.55;   -2.159;   14.467;    0.000
 527.71;   17.461;   10.600;    0.000
 527.86;    3.301;    3.533;    0.000
 528.02;    6.352;   14.667;    0.000
 528.18;    8.622;   -7.933;    0.000
 528.34;   12.072;   21.400;    0.000
 528.50;   -3.788;    3.933;    0.000
 528.66;    9.252;    1.067;    0.000
 528.82;    9.902;   13.067;    0.000
 528.98;    5.502;    3.867;    0.000
 529.14;   -2.378;    4.200;    0.000
 529.29;    7.832;   -2.533;    0.000
 529.45;    7.633;   22.933;    0.000
 529.61;   11.853;    0.000;    0.000
 529.77;   -1.087;   10.400;    0.000
 529.93;    8.143;   10.400;    0.000
 530.09;   13.203;   -0.067;    0.000
 530.25;   10.923;   19.600;    0.000
 530.41;    5.693;   14.333;    0.000
 530.56;    6.863;    2.867;    0.000
 530.72;    4.074;   -4.333;    0.000
 530.88;   13.494;   28.467;    0.000
 531.04;    2.634;   -2.133;    0.000
 531.20;   12.124;   19.600;    0.000
 531.36;    8.494;   12.600;    0.000
 531.52;   14.914;    1.133;    0.000
 531.68;   10.424;    3.200;    0.000
 531.83;   11.774;   -5.733;    0.000
 531.99;    7.744;    0.200;    0.000
 532.15;    7.695;    0.467;    0.000
 532.31;   12.015;    9.667;    0.000
 532.47;   12.015;   16.333;    0.000
 532.63;    1.015;   -7.533;    0.000
 532.79;    1.235;   27.867;    0.000
 532.94;    6.135;  -11.333;    0.000
 533.10;    7.515;   11.267;    0.000
 533.26;    5.945;    1.733;    0.000
 533.42;    5.076;   25.333;    0.000
 533.58;    3.236;   12.867;    0.000
 533.74;  -14.404;  -17.733;    0.000
 533.90;   31.876;   44.067;    0.000
 534.05;   61.886;   64.533;    0.000
 534.21;    0.836;   -1.000;    0.000
 534.37;    5.846;    4.533;    0.000
 534.53;    8.236;   -2.467;    0.000
 534.69;    9.536;    7.933;    0.000
 534.85;   15.227;   22.933;    0.000
 535.01;    8.367;    6.600;    0.000
 535.16;    6.267;    1.200;    0.000
 535.32;   21.707;   17.533;    0.000
 535.48;    7.797;    3.333;    0.000
 535.64;   11.577;   15.667;    0.000
 535.80;    9.247;  -14.600;    0.000
 535.96;   10.997;   -5.200;    0.000
 536.12;   10.708;   26.000;    0.000
 536.27;    5.188;    7.667;    0.000
 536.43;   16.388;   19.533;    0.000
 536.59;    8.928;   11.867;    0.000
 536.75;    6.698;   -6.000;    0.000
 536.91;   13.108;   14.933;    0.000
 537.07;   12.808;    0.667;    0.000
 537.22;   11.938;   -4.533;    0.000
 537.38;   15.848;   15.267;    0.000
 537.54;   16.079;  -14.467;    0.000
 537.70;    6.609;   -2.467;    0.000
 537.86;   19.419;    8.467;    0.000
 538.02;    8.959;    7.267;    0.000
 538.17;   11.849;   32.267;    0.000
 538.33;   15.769;   24.533;    0.000
 538.49;   13.259;    1.067;    0.000
 538.65;    6.419;    3.133;    0.000
 538.81;   13.970;    6.600;    0.000
 538.97;   10.440;   10.067;    0.000
 539.13;   16.980;   26.733;    0.000
 539.28;   17.890;    5.733;    0.000
 539.44;   12.190;   -0.933;    0.000
 539.60;   11.400;    0.733;    0.000
 539.76;   19.110;   -8.267;    0.000
 539.92;   11.540;   10.067;    0.000
 540.07;   21.370;   10.667;    0.000
 540.23;   19.841;   19.000;    0.000
 540.39;   19.591;    7.800;    0.000
 540.55;    7.111;    7.200;    0.000
 540.71;   16.271;    1.467;    0.000
 540.87;   14.991;   -8.467;    0.000
 541.02;   10.761;    4.333;    0.000
 541.18;   24.001;   11.400;    0.000
 541.34;   13.921;   -0.400;    0.000
 541.50;   19.772;   -6.933;    0.000
 541.66;   16.472;   21.133;    0.000
 541.82;    9.942;   -2.333;    0.000
 541.97;   22.892;    9.000;    0.000
 542.13;   10.662;   -7.000;    0.000
 542.29;   25.592;   -7.267;    0.000
 542.45;   20.052;    3.400;    0.000
 542.61;   25.632;   -5.067;    0.000
 542.76;   27.393;   -4.200;    0.000
 542.92;   28.463;    2.200;    0.000
 543.08;   31.273;   -2.400;    0.000
 543.24;   30.333;   14.933;    0.000
 543.40;   30.603;    7.133;    0.000
 543.56;   34.743;    5.133;    0.000
 543.71;   47.503;    5.800;    0.000
 543.87;   58.103;    2.267;    0.000
 544.03;   74.173;    0.800;    0.000
 544.19;   96.364;   25.267;    0.000
 544.35;   99.434;    7.067;    0.000
 544.50;  101.724;   -7.933;    0.000
 544.66;  128.644;   21.133;    0.000
 544.82;  156.964;    1.533;    0.000
 544.98;  192.824;    5.533;    0.000
 545.14;  291.844;    0.400;    0.000
 545.29;  511.174;   -3.267;    0.000
 545.45; 1069.295;    8.733;    0.000
 545.61; 2900.725;   18.667;    0.000
 545.77;18698.205;    0.133;    0.000
 545.93;56722.795;    3.200;    0.000
 546.08;52741.735;   -8.200;    0.000
 546.24;34737.865;    0.800;    0.000
 546.40; 9602.845;   -5.733;    0.000
 546.56; 2799.795;   -6.533;    0.000
 546.72; 1383.755;    8.867;    0.000
 546.87; 1065.896;   -4.933;    0.000
 547.03;  702.506;   -0.333;    0.000
 547.19;  667.306;   -7.933;    0.000
 547.35;  442.996;    1.133;    0.000
 547.51;  469.166;    8.200;    0.000
 547.66;  331.516;   18.667;    0.000
 547.82;  362.026;  -14.533;    0.000
 547.98;  269.286;    4.333;    0.000
 548.14;  314.937;    4.400;    0.000
 548.29;  235.067;   18.867;    0.000
 548.45;  265.817;    2.267;    0.000
 548.61;  185.737;    3.533;    0.000
 548.77;  227.687;   -2.933;    0.000
 548.93;  163.807;   20.800;    0.000
 549.08;  207.257;    6.133;    0.000
 549.24;  146.747;   -0.067;    0.000
 549.40;  184.537;   10.867;    0.000
 549.56;  135.398;    2.600;    0.000
 549.72;  166.388;    0.800;    0.000
 549.87;  124.468;   17.067;    0.000
 550.03;  163.388;    6.333;    0.000
 550.19;  123.178;   19.533;    0.000
 550.35;  151.928;   22.000;    0.000
 550.50;  100.748;   11.000;    0.000
 550.66;  130.168;  -15.467;    0.000
 550.82;   91.159;   17.133;    0.000
 550.98;  120.759;   -7.467;    0.000
 551.14;   86.609;    5.800;    0.000
 551.29;  112.369;   -4.067;    0.000
 551.45;   89.139;    9.600;    0.000
 551.61;  107.519;   14.800;    0.000
 551.77;   77.719;   15.933;    0.000
 551.92;  104.209;   -5.400;    0.000
 552.08;   73.199;    0.467;    0.000
 552.24;   91.520;   13.933;    0.000
 552.40;   64.670;    5.733;    0.000
 552.55;   95.200;   -5.133;    0.000
 552.71;   62.420;    3.933;    0.000
 552.87;   84.690;    5.933;    0.000
 553.03;   59.520;    3.133;    0.000
 553.19;   76.300;   -4.067;    0.000
 553.34;   65.590;   22.867;    0.000
 553.50;   74.611;   -4.667;    0.000
 553.66;   53.871;    4.467;    0.000
 553.82;   72.821;    2.400;    0.000
 553.97;   56.701;   14.933;    0.000
 554.13;   72.911;   10.600;    0.000
 554.29;   59.151;   16.333;    0.000
 554.45;   76.211;   12.333;    0.000
 554.60;   50.121;   -0.333;    0.000
 554.76;   58.691;   10.667;    0.000
 554.92;   49.082;   -4.533;    0.000
 555.08;   63.092;    8.333;    0.000
 555.23;   44.672;   -0.667;    0.000
 555.39;   56.532;   10.733;    0.000
 555.55;   41.342;    2.200;    0.000
 555.71;   59.462;   12.933;    0.000
 555.86;   45.062;   10.867;    0.000
 556.02;   59.202;    7.600;    0.000
 556.18;   40.683;   -3.067;    0.000
 556.34;   55.923;  -10.067;    0.000
 556.49;   34.403;   -6.133;    0.000
 556.65;   55.323;    8.933;    0.000
 556.81;   39.443;   -2.400;    0.000
 556.97;   50.293;   -7.800;    0.000
 557.12;   40.253;   10.400;    0.000
 557.28;   48.553;   20.867;    0.000
 557.44;   39.494;    0.667;    0.000
 557.60;   43.844;   -0.133;    0.000
 557.75;   39.374;   13.133;    0.000
 557.91;   47.374;   -1.133;    0.000
 558.07;   34.714;  -21.600;    0.000
 558.23;   46.604;   16.600;    0.000
 558.38;   35.014;    2.600;    0.000
 558.54;   46.614;   10.400;    0.000
 558.70;   34.864;   26.533;    0.000
 558.86;   37.135;   12.467;    0.000
 559.01;   35.555;   17.733;    0.000
 559.17;   41.795;    6.000;    0.000
 559.33;   33.295;   -5.200;    0.000
 559.48;   37.105;    9.000;    0.000
 559.64;   32.745;    8.800;    0.000
 559.80;   42.965;   17.600;    0.000
 559.96;   32.965;    3.867;    0.000
 560.11;   37.286;   -3.867;    0.000
 560.27;   32.466;    3.133;    0.000
 560.43;   40.716;    5.133;    0.000
 560.59;   31.736;   10.267;    0.000
 560.74;   43.436;   -2.067;    0.000
 560.90;   30.426;    9.267;    0.000
 561.06;   30.436;  -13.600;    0.000
 561.21;   23.806;    6.133;    0.000
 561.37;   34.646;    3.933;    0.000
 561.53;   32.837;   -1.600;    0.000
 561.69;   34.357;    1.467;    0.000
 561.84;   28.767;    6.000;    0.000
 562.00;   43.387;   19.600;    0.000
 562.16;   24.027;    9.933;    0.000
 562.32;   35.867;   -4.800;    0.000
 562.47;   22.807;   -0.267;    0.000
 562.63;   37.917;   15.200;    0.000
 562.79;   24.688;   14.733;    0.000
 562.94;   42.518;    9.667;    0.000
 563.10;   29.718;    7.333;    0.000
 563.26;   33.358;   -9.733;    0.000
 563.42;   21.668;    8.867;    0.000
 563.57;   35.748;   -6.933;    0.000
 563.73;   25.808;   -2.467;    0.000
 563.89;   30.198;   11.133;    0.000
 564.04;   21.058;   13.733;    0.000
 564.20;   26.899;   -4.933;    0.000
 564.36;   25.759;    9.067;    0.000
 564.51;   35.249;   -4.533;    0.000
 564.67;   21.399;   14.067;    0.000
 564.83;   26.509;    6.933;    0.000
 564.99;   19.869;    4.000;    0.000
 565.14;   26.999;   -5.600;    0.000
 565.30;   17.829;   10.333;    0.000
 565.46;   23.800;    5.867;    0.000
 565.61;   24.380;   -0.600;    0.000
 565.77;   33.110;   17.867;    0.000
 565.93;   26.790;   -3.733;    0.000
 566.09;   21.780;    3.800;    0.000
 566.24;   29.150;    5.267;    0.000
 566.40;   35.020;   24.733;    0.000
 566.56;   18.910;    8.267;    0.000
 566.71;   26.440;    0.600;    0.000
 566.87;   15.441;    3.067;    0.000
 567.03;   26.081;    1.333;    0.000
 567.18;   19.241;    4.067;    0.000
 567.34;   32.401;    1.200;    0.000
 567.50;   24.781;    2.667;    0.000
 567.65;   32.621;   14.333;    0.000
 567.81;   15.931;  -13.267;    0.000
 567.97;   18.121;    1.867;    0.000
 568.13;   20.112;    4.467;    0.000
 568.28;   20.562;   -4.267;    0.000
 568.44;   16.052;   17.467;    0.000
 568.60;   21.692;  -12.733;    0.000
 568.75;   19.852;   10.333;    0.000
 568.91;   27.922;   -9.467;    0.000
 569.07;   15.972;    2.067;    0.000
 569.22;   22.412;   -4.867;    0.000
 569.38;   20.623;   12.133;    0.000
 569.54;   26.493;    7.467;    0.000
 569.69;   18.773;    1.000;    0.000
 569.85;   21.723;    6.600;    0.000
 570.01;   22.163;   -0.867;    0.000
 570.16;   28.563;    4.400;    0.000
 570.32;   28.293;   13.133;    0.000
 570.48;   34.763;   -4.933;    0.000
 570.63;   19.873;    2.267;    0.000
 570.79;   25.674;   14.800;    0.000
 570.95;   23.274;   32.533;    0.000
 571.10;   27.994;   13.200;    0.000
 571.26;   19.444;   13.267;    0.000
 571.42;   26.294;   -0.133;    0.000
 571.57;   24.544;    8.800;    0.000
 571.73;   22.924;    0.600;    0.000
 571.89;   17.364;    4.133;    0.000
 572.05;   20.275;   -6.667;    0.000
 572.20;   19.485;    8.600;    0.000
 572.36;   20.645;  -10.133;    0.000
 572.52;   19.075;   14.133;    0.000
 572.67;   22.355;   -2.133;    0.000
 572.83;   21.055;    3.333;    0.000
 572.99;   27.575;    9.933;    0.000
 573.14;   22.595;    2.400;    0.000
 573.30;   19.115;    1.667;    0.000
 573.45;   20.686;   14.200;    0.000
 573.61;   35.666;   24.733;    0.000
 573.77;   20.366;    9.333;    0.000
 573.92;   22.976;  -11.133;    0.000
 574.08;   16.866;   15.867;    0.000
 574.24;   25.436;    7.800;    0.000
 574.39;   14.606;    6.800;    0.000
 574.55;   25.276;    5.200;    0.000
 574.71;   25.787;   13.667;    0.000
 574.86;   29.917;  -17.200;    0.000
 575.02;   24.627;   11.600;    0.000
 575.18;   30.237;    7.200;    0.000
 575.33;   25.907;   -1.867;    0.000
 575.49;   31.307;    0.933;    0.000
 575.65;   29.377;   18.800;    0.000
 575.80;   39.537;    5.467;    0.000
 575.96;   45.077;  -28.400;    0.000
 576.12;   60.548;   -6.867;    0.000
 576.27;   92.208;   -7.067;    0.000
 576.43;  211.978;  -10.333;    0.000
 576.59;  715.298;    7.600;    0.000
 576.74; 6104.398;   -1.133;    0.000
 576.90; 9949.788;    1.600;    0.000
 577.06; 3637.168;   -1.800;    0.000
 577.21; 1175.388;    2.467;    0.000
 577.37;  391.049;    9.333;    0.000
 577.52;  187.799;   19.533;    0.000
 577.68;  115.469;    1.400;    0.000
 577.84;   97.149;    9.933;    0.000
 577.99;   82.689;   11.200;    0.000
 578.15;   98.169;    4.133;    0.000
 578.31;  103.749;   -4.800;    0.000
 578.46;  165.369;   27.200;    0.000
 578.62;  397.529;   -6.600;    0.000
 578.78; 2630.370;   16.800;    0.000
 578.93; 9941.160;    7.200;    0.000
 579.09; 6410.720;    8.533;    0.000
 579.24; 1980.810;    0.667;    0.000
 579.40;  641.630;   24.133;    0.000
 579.56;  261.570;    5.400;    0.000
 579.71;  129.130;   -9.600;    0.000
 579.87;  104.060;    3.533;    0.000
 580.03;   72.391;  -13.400;    0.000
 580.18;   76.251;   14.333;    0.000
 580.34;   54.891;    6.600;    0.000
 580.49;   50.791;   15.800;    0.000
 580.65;   46.471;    9.733;    0.000
 580.81;   44.841;   15.067;    0.000
 580.96;   43.671;   -4.800;    0.000
 581.12;   35.621;   -9.467;    0.000
 581.28;   34.801;   -1.933;    0.000
 581.43;   33.652;   -2.200;    0.000
 581.59;   34.102;    6.333;    0.000
 581.74;   35.482;   -0.067;    0.000
 581.90;   26.502;    4.267;    0.000
 582.06;   26.782;   -8.867;    0.000
 582.21;   25.362;   -8.133;    0.000
 582.37;   27.092;   -4.800;    0.000
 582.53;   23.992;   -7.933;    0.000
 582.68;   27.123;    4.267;    0.000
 582.84;   29.353;   12.000;    0.000
 582.99;   28.093;    5.800;    0.000
 583.15;   16.323;   -6.667;    0.000
 583.31;   28.393;   13.267;    0.000
 583.46;   20.123;   16.133;    0.000
 583.62;   17.823;   -0.467;    0.000
 583.77;   18.713;   18.000;    0.000
 583.93;   23.084;    3.467;    0.000
 584.09;   24.164;    2.200;    0.000
 584.24;   15.214;    0.867;    0.000
 584.40;   21.944;    5.533;    0.000
 584.55;   23.174;    5.200;    0.000
 584.71;   22.324;   12.067;    0.000
 584.87;   16.084;   10.600;    0.000
 585.02;   16.244;   14.867;    0.000
 585.18;   28.364;    6.533;    0.000
 585.33;   18.735;   14.600;    0.000
 585.49;   18.005;   -6.400;    0.000
 585.65;   15.305;    6.600;    0.000
 585.80;   16.435;  -12.400;    0.000
 585.96;   19.675;   21.200;    0.000
 586.11;   19.385;    5.467;    0.000
 586.27;   12.385;   -2.000;    0.000
 586.43;   17.045;  -11.733;    0.000
 586.58;   15.466;   19.200;    0.000
 586.74;   28.286;   11.400;    0.000
 586.89;   13.216;   -4.733;    0.000
 587.05;   20.766;    5.667;    0.000
 587.21;   15.926;    9.133;    0.000
 587.36;   13.946;    7.333;    0.000
 587.52;   11.186;   11.867;    0.000
 587.67;   19.266;    6.333;    0.000
 587.83;   18.646;   22.600;    0.000
 587.99;   23.617;   -8.867;    0.000
 588.14;   18.957;    1.600;    0.000
 588.30;   15.547;    6.800;    0.000
 588.45;   13.597;   -0.067;    0.000
 588.61;   23.867;    5.000;    0.000
 588.77;   12.857;    0.267;    0.000
 588.92;   16.787;   14.467;    0.000
 589.08;   17.067;   -1.267;    0.000
 589.23;   11.848;    1.267;    0.000
 589.39;   20.818;   15.333;    0.000
 589.54;   18.648;   -2.600;    0.000
 589.70;   12.818;   -0.400;    0.000
 589.86;   17.378;    2.133;    0.000
 590.01;   11.068;  -12.533;    0.000
 590.17;   11.168;    0.600;    0.000
 590.32;    9.698;    6.467;    0.000
 590.48;   13.608;   19.800;    0.000
 590.63;   10.689;   -2.667;    0.000
 590.79;   21.379;    7.933;    0.000
 590.95;   18.009;   14.867;    0.000
 591.10;   18.189;   -8.667;    0.000
 591.26;   15.449;   11.267;    0.000
 591.41;   14.519;    5.400;    0.000
 591.57;   11.799;  -10.067;    0.000
 591.72;   12.729;    5.667;    0.000
 591.88;    9.730;   -5.867;    0.000
 592.04;   10.320;    4.867;    0.000
 592.19;   12.300;   15.200;    0.000
 592.35;   12.740;   11.333;    0.000
 592.50;   10.990;    0.400;    0.000
 592.66;   13.940;   -6.200;    0.000
 592.81;   12.080;   -8.200;    0.000
 592.97;   15.930;  -10.000;    0.000
 593.13;   16.840;   17.000;    0.000
 593.28;   13.951;    9.200;    0.000
 593.44;   14.851;   10.067;    0.000
 593.59;    2.601;   -1.267;    0.000
 593.75;    3.611;    8.467;    0.000
 593.90;    9.951;   21.933;    0.000
 594.06;   13.871;    7.533;    0.000
 594.21;   11.791;  -15.733;    0.000
 594.37;   15.971;   21.867;    0.000
 594.53;    7.732;    4.800;    0.000
 594.68;   10.902;    3.200;    0.000
 594.84;    6.202;  -18.000;    0.000
 594.99;   15.202;   31.000;    0.000
 595.15;    4.912;    4.800;    0.000
 595.30;    7.402;   23.400;    0.000
 595.46;    6.512;   -3.467;    0.000
 595.61;   11.842;   19.400;    0.000
 595.77;    6.082;   11.200;    0.000
 595.92;   16.463;   36.333;    0.000
 596.08;   11.913;    9.933;    0.000
 596.24;    6.713;  -12.200;    0.000
 596.39;    6.713;    2.267;    0.000
 596.55;    7.393;   -3.867;    0.000
 596.70;    7.383;   -1.933;    0.000
 596.86;    3.173;   -7.400;    0.000
 597.01;    4.693;    0.533;    0.000
 597.17;   15.574;    2.467;    0.000
 597.32;    9.194;   -4.933;    0.000
 597.48;   11.844;   -6.800;    0.000
 597.63;   11.894;   23.800;    0.000
 597.79;   21.194;   12.600;    0.000
 597.94;    9.414;  -13.667;    0.000
 598.10;   15.044;    2.933;    0.000
 598.26;    4.724;  -16.933;    0.000
 598.41;   10.045;    2.600;    0.000
 598.57;   11.565;    0.933;    0.000
 598.72;   19.055;    2.733;    0.000
 598.88;   15.805;   27.133;    0.000
 599.03;    8.865;    5.667;    0.000
 599.19;    7.595;   11.400;    0.000
 599.34;    9.525;    2.600;    0.000
 599.50;   12.905;   -7.333;    0.000
 599.65;   11.305;    1.533;    0.000
 599.81;    3.866;  -10.200;    0.000
 599.96;   12.936;   10.733;    0.000
 600.12;    9.306;    0.133;    0.000
 600.27;    3.316;   30.067;    0.000
 600.43;   10.616;    5.333;    0.000
 600.58;   14.866;   -1.200;    0.000
 600.74;   22.856;    1.933;    0.000
 600.90;   17.186;   11.600;    0.000
 601.05;    2.617;   -9.067;    0.000
 601.21;    8.917;    2.200;    0.000
 601.36;   11.127;   -0.600;    0.000
 601.52;    4.867;    4.333;    0.000
 601.67;   10.287;  -25.800;    0.000
 601.83;   11.627;    0.800;    0.000
 601.98;   16.477;    4.267;    0.000
 602.14;   10.387;   -4.200;    0.000
 602.29;   11.117;   11.467;    0.000
 602.45;    8.438;   22.867;    0.000
 602.60;   11.098;   -3.467;    0.000
 602.76;   12.658;    8.000;    0.000
 602.91;    8.218;   -2.467;    0.000
 603.07;    9.448;   -4.133;    0.000
 603.22;   12.578;    0.133;    0.000
 603.38;    9.148;   16.333;    0.000
 603.53;    2.598;    9.133;    0.000
 603.69;    7.729;    4.667;    0.000
 603.84;    9.799;   -3.933;    0.000
 604.00;   11.039;   11.867;    0.000
 604.15;   16.059;    9.333;    0.000
 604.31;   16.329;   -5.733;    0.000
 604.46;   11.269;  -14.000;    0.000
 604.62;    5.579;    6.933;    0.000
 604.77;    9.719;    9.000;    0.000
 604.93;    5.429;    5.000;    0.000
 605.08;    5.510;  -11.200;    0.000
 605.24;   14.380;   15.133;    0.000
 605.39;    9.670;   -5.667;    0.000
 605.55;    1.160;    6.933;    0.000
 605.70;   12.810;    0.533;    0.000
 605.86;    5.980;    1.400;    0.000
 606.01;    9.910;    2.333;    0.000
 606.17;   10.040;   16.800;    0.000
 606.32;    6.961;    4.000;    0.000
 606.48;    5.831;   -8.933;    0.000
 606.63;    7.261;   -2.267;    0.000
 606.79;   10.811;   -1.333;    0.000
 606.94;   10.911;    6.333;    0.000
 607.10;   17.691;    2.533;    0.000
 607.25;    4.331;   -9.600;    0.000
 607.41;   10.781;   19.800;    0.000
 607.56;    9.851;   10.000;    0.000
 607.72;   13.092;   20.867;    0.000
 607.87;   14.272;   10.800;    0.000
 608.03;    7.142;    1.600;    0.000
 608.18;    2.352;   -6.067;    0.000
 608.33;   16.342;  -26.067;    0.000
 608.49;    8.532;    2.933;    0.000
 608.64;    8.462;    7.333;    0.000
 608.80;   11.282;    9.467;    0.000
 608.95;   -1.527;    5.067;    0.000
 609.11;   13.553;    0.867;    0.000
 609.26;   10.613;   12.667;    0.000
 609.42;    5.353;   12.067;    0.000
 609.57;    4.813;   -2.000;    0.000
 609.73;   11.223;   -9.000;    0.000
 609.88;   13.823;   11.267;    0.000
 610.04;   14.203;    5.333;    0.000
 610.19;    1.674;    7.200;    0.000
 610.35;   12.504;   -9.133;    0.000
 610.50;    5.374;   -3.200;    0.000
 610.66;   15.824;    9.200;    0.000
 610.81;   10.754;   20.933;    0.000
 610.97;   11.284;    1.467;    0.000
 611.12;    4.804;    9.267;    0.000
 611.27;    6.414;   14.467;    0.000
 611.43;   13.174;  -10.000;    0.000
 611.58;   10.065;   11.867;    0.000
 611.74;   10.315;   16.467;    0.000
 611.89;    7.855;    0.933;    0.000
 612.05;   24.475;   -3.667;    0.000
 612.20;   10.585;    0.200;    0.000
 612.36;   13.965;   15.467;    0.000
 612.51;   10.415;   12.733;    0.000
 612.67;    8.995;   10.000;    0.000
 612.82;   11.806;   15.133;    0.000
 612.98;    7.446;   12.467;    0.000
 613.13;    9.196;   27.933;    0.000
 613.28;   11.776;   17.867;    0.000
 613.44;    6.996;    6.267;    0.000
 613.59;    5.336;    1.933;    0.000
 613.75;    9.266;   13.333;    0.000
 613.90;    7.336;    4.800;    0.000
 614.06;   12.436;    5.467;    0.000
 614.21;   10.717;   -2.867;    0.000
 614.37;    5.057;    2.000;    0.000
 614.52;    5.867;   -3.933;    0.000
 614.67;   14.907;   20.867;    0.000
 614.83;    7.057;   12.267;    0.000
 614.98;   11.707;   12.467;    0.000
 615.14;    7.687;    0.667;    0.000
 615.29;    8.587;    9.600;    0.000
 615.45;    9.078;    5.800;    0.000
 615.60;   14.058;   18.667;    0.000
 615.76;    5.798;   16.667;    0.000
 615.91;    2.988;   17.467;    0.000
 616.06;    3.138;    8.200;    0.000
 616.22;   11.728;    6.600;    0.000
 616.37;    7.278;   -1.600;    0.000
 616.53;    8.348;   10.867;    0.000
 616.68;    9.378;   10.200;    0.000
 616.84;    9.939;  -18.067;    0.000
 616.99;   16.949;    8.533;    0.000
 617.14;    3.639;   -2.000;    0.000
 617.30;    8.189;    4.800;    0.000
 617.45;    7.369;   -3.133;    0.000
 617.61;    9.019;   19.000;    0.000
 617.76;   12.089;   18.400;    0.000
 617.92;    2.439;   -0.600;    0.000
 618.07;    6.260;    1.333;    0.000
 618.22;    9.610;   16.933;    0.000
 618.38;    3.130;    6.267;    0.000
 618.53;    2.910;   14.333;    0.000
 618.69;    6.140;    7.467;    0.000
 618.84;    5.740;   24.000;    0.000
 619.00;    8.000;  -23.067;    0.000
 619.15;    6.980;   -2.133;    0.000
 619.30;    7.420;    2.467;    0.000
 619.46;    4.411;   12.867;    0.000
 619.61;   10.161;    2.067;    0.000
 619.77;   10.241;   14.267;    0.000
 619.92;    9.321;    5.600;    0.000
 620.08;   -0.479;    4.667;    0.000
 620.23;    6.131;    8.467;    0.000
 620.38;    6.451;   10.200;    0.000
 620.54;    7.931;   -0.867;    0.000
 620.69;    6.062;  -17.400;    0.000
 620.85;    6.012;    3.267;    0.000
 621.00;    9.092;    3.933;    0.000
 621.15;    8.712;   17.733;    0.000
 621.31;   12.742;   23.333;    0.000
 621.46;    9.952;   15.667;    0.000
 621.62;   10.792;   20.133;    0.000
 621.77;   15.022;  -10.200;    0.000
 621.92;    9.182;   25.933;    0.000
 622.08;    9.203;    4.933;    0.000
 622.23;    3.823;   16.133;    0.000
 622.39;   14.023;   10.600;    0.000
 622.54;    4.473;   16.667;    0.000
 622.70;   10.693;   19.133;    0.000
 622.85;    8.443;   14.333;    0.000
 623.00;    8.573;   -6.333;    0.000
 623.16;   12.513;   -7.000;    0.000
 623.31;   16.604;   -1.933;    0.000
 623.46;   12.274;   -3.400;    0.000
 623.62;   19.904;   17.667;    0.000
 623.77;    7.704;  -10.467;    0.000
 623.93;    5.944;  -17.267;    0.000
 624.08;   14.144;   11.600;    0.000
 624.23;    7.914;   18.400;    0.000
 624.39;   -1.126;   10.267;    0.000
 624.54;   12.385;    7.267;    0.000
 624.70;   10.165;    5.667;    0.000
 624.85;   19.815;    2.800;    0.000
 625.00;   18.195;   16.000;    0.000
 625.16;   25.595;  -15.267;    0.000
 625.31;    8.705;    9.467;    0.000
 625.47;    9.805;  -12.267;    0.000
 625.62;   10.515;   14.067;    0.000
 625.77;    8.475;   12.000;    0.000
 625.93;   10.846;   30.267;    0.000
 626.08;   15.686;    9.667;    0.000
 626.24;   36.216;    0.800;    0.000
 626.39;   23.616;    1.400;    0.000
 626.54;    9.376;    2.133;    0.000
 626.70;   15.676;    4.667;    0.000
 626.85;    9.716;   20.000;    0.000
 627.00;    9.786;    4.000;    0.000
 627.16;    8.637;   10.400;    0.000
 627.31;    8.367;   22.933;    0.000
 627.47;   -1.763;    9.000;    0.000
 627.62;    9.927;   -3.267;    0.000
 627.77;    3.007;   22.733;    0.000
 627.93;    0.477;   -6.333;    0.000
 628.08;    3.607;   -9.800;    0.000
 628.23;    6.977;   -9.733;    0.000
 628.39;   11.067;    7.000;    0.000
 628.54;    4.568;   16.000;    0.000
 628.70;    7.288;   -1.600;    0.000
 628.85;    7.488;    8.267;    0.000
 629.00;   11.918;   -1.067;    0.000
 629.16;    8.948;   -5.067;    0.000
 629.31;   11.138;    9.067;    0.000
 629.46;    7.748;   -4.000;    0.000
 629.62;   14.198;    8.400;    0.000
 629.77;    3.909;    4.467;    0.000
 629.92;    1.109;   12.867;    0.000
 630.08;   11.039;    2.933;    0.000
 630.23;    1.559;   23.267;    0.000
 630.39;   15.189;   14.933;    0.000
 630.54;   -0.501;   -0.800;    0.000
 630.69;   14.269;   24.000;    0.000
 630.85;    6.749;   37.667;    0.000
 631.00;    5.449;    9.400;    0.000
 631.15;    8.360;    7.400;    0.000
 631.31;    7.740;   10.267;    0.000
 631.46;   16.860;   -1.200;    0.000
 631.61;   14.830;   -3.400;    0.000
 631.77;    0.370;   -6.133;    0.000
 631.92;    8.480;   -1.267;    0.000
 632.07;   11.630;   10.000;    0.000
 632.23;    8.240;   -4.867;    0.000
 632.38;    6.031;    6.667;    0.000
 632.54;    5.581;    6.933;    0.000
 632.69;    7.931;   20.800;    0.000
 632.84;   16.511;   17.867;    0.000
 633.00;    5.851;  -13.467;    0.000
 633.15;    7.711;   -1.133;    0.000
 633.30;    4.181;    7.667;    0.000
 633.46;    2.861;   18.800;    0.000
 633.61;    9.811;   17.600;    0.000
 633.76;    0.602;    6.867;    0.000
 633.92;   11.362;   17.867;    0.000
 634.07;    5.612;    6.733;    0.000
 634.22;    3.022;   -2.200;    0.000
 634.38;    2.652;    0.333;    0.000
 634.53;    6.992;    5.400;    0.000
 634.68;   10.452;    0.467;    0.000
 634.84;    8.792;    9.000;    0.000
 634.99;   17.093;   16.267;    0.000
 635.14;   14.633;   19.067;    0.000
 635.30;    4.683;  -24.200;    0.000
 635.45;    0.963;    8.733;    0.000
 635.60;    9.393;    0.333;    0.000
 635.76;    8.113;    7.667;    0.000
 635.91;    0.373;    4.933;    0.000
 636.06;   13.673;    7.933;    0.000
 636.22;    3.123;   10.400;    0.000
 636.37;    1.294;    0.533;    0.000
 636.52;    8.584;   -8.333;    0.000
 636.68;   -0.206;   -4.467;    0.000
 636.83;    0.294;    6.800;    0.000
 636.98;    5.664;    6.333;    0.000
 637.14;    8.624;    5.200;    0.000
 637.29;    9.344;   24.933;    0.000
 637.44;   -1.836;   19.400;    0.000
 637.60;    1.325;   14.667;    0.000
 637.75;    2.735;   -0.600;    0.000
 637.90;    6.005;    6.800;    0.000
 638.05;    3.935;    3.333;    0.000
 638.21;    3.385;   14.400;    0.000
 638.36;   11.225;    6.867;    0.000
 638.51;    8.265;   28.333;    0.000
 638.67;    9.575;   -1.467;    0.000
 638.82;    5.936;   16.200;    0.000
 638.97;   13.526;    2.867;    0.000
 639.13;   11.716;   11.333;    0.000
 639.28;    6.076;   16.333;    0.000
 639.43;    7.586;   -1.333;    0.000
 639.59;    8.176;   -2.600;    0.000
 639.74;    3.426;   -1.467;    0.000
 639.89;    8.776;   -8.933;    0.000
 640.05;   10.896;   27.667;    0.000
 640.20;    3.947;    6.533;    0.000
 640.35;    9.987;    1.867;    0.000
 640.50;   10.357;   14.600;    0.000
 640.66;    3.037;    9.200;    0.000
 640.81;   -4.093;    0.800;    0.000
 640.96;    7.987;   16.000;    0.000
 641.12;    7.897;   12.200;    0.000
 641.27;    8.047;   13.667;    0.000
 641.42;    5.578;   -5.600;    0.000
 641.58;   13.978;    5.933;    0.000
 641.73;    8.428;    0.333;    0.000
 641.88;    5.498;   19.133;    0.000
 642.03;   16.158;   -1.467;    0.000
 642.19;    9.018;   24.000;    0.000
 642.34;   10.668;    5.867;    0.000
 642.49;    2.888;   10.000;    0.000
 642.65;    7.048;    9.467;    0.000
 642.80;   10.149;    6.067;    0.000
 642.95;    9.009;   13.667;    0.000
 643.10;   -2.061;  -10.867;    0.000
 643.26;    8.739;   -4.133;    0.000
 643.41;    3.209;   13.333;    0.000
 643.56;    6.769;    6.800;    0.000
 643.72;    4.419;   15.467;    0.000
 643.87;    6.509;   15.067;    0.000
 644.02;    3.860;   -1.200;    0.000
 644.17;   11.750;    8.267;    0.000
 644.33;    7.740;   18.067;    0.000
 644.48;    2.710;   10.200;    0.000
 644.63;    5.330;   17.267;    0.000
 644.79;    1.920;   16.800;    0.000
 644.94;    9.090;    8.800;    0.000
 645.09;    5.970;    6.000;    0.000
 645.24;    3.890;    0.600;    0.000
 645.40;    2.431;    1.933;    0.000
 645.55;    8.241;  -10.067;    0.000
 645.70;    4.301;    4.600;    0.000
 645.86;   10.101;   12.000;    0.000
 646.01;   19.841;    6.400;    0.000
 646.16;    1.751;  -14.600;    0.000
 646.31;    4.551;    2.067;    0.000
 646.47;    9.881;    6.600;    0.000
 646.62;    6.822;   -6.867;    0.000
 646.77;    8.112;  -10.067;    0.000
 646.92;    7.262;   14.467;    0.000
 647.08;    4.532;   15.867;    0.000
 647.23;    2.572;   -7.333;    0.000
 647.38;    6.222;   26.000;    0.000
 647.53;    9.422;   16.800;    0.000
 647.69;   -1.918;    7.133;    0.000
 647.84;    3.442;    1.933;    0.000
 647.99;   10.013;   -1.933;    0.000
 648.15;    4.853;    6.733;    0.000
 648.30;    2.013;    5.133;    0.000
 648.45;   -0.147;    2.600;    0.000
 648.60;    0.523;   23.533;    0.000
 648.76;    5.373;  -15.800;    0.000
 648.91;    7.143;   -2.333;    0.000
 649.06;    4.963;    3.067;    0.000
 649.21;   12.904;   21.000;    0.000
 649.37;    7.714;   11.400;    0.000
 649.52;    7.944;   -2.000;    0.000
 649.67;   -1.096;    5.933;    0.000
 649.82;    6.754;   -1.400;    0.000
 649.98;    3.904;   10.267;    0.000
 650.13;    8.454;   19.200;    0.000
 650.28;   12.234;    8.133;    0.000
 650.43;    7.405;   -5.400;    0.000
 650.59;    4.355;   -6.067;    0.000
 650.74;    8.055;   21.267;    0.000
 650.89;    1.345;   -4.933;    0.000
 651.04;   10.065;   -0.067;    0.000
 651.20;    6.515;   10.733;    0.000
 651.35;    7.785;   15.800;    0.000
 651.50;   11.585;    8.133;    0.000
 651.65;    6.265;    5.467;    0.000
 651.81;    2.336;   -3.200;    0.000
 651.96;   11.286;   12.800;    0.000
 652.11;    0.216;   16.000;    0.000
 652.26;   12.726;   12.000;    0.000
 652.41;    7.516;   -9.533;    0.000
 652.57;    6.686;   20.133;    0.000
 652.72;    4.386;   14.000;    0.000
 652.87;    3.676;    6.133;    0.000
 653.02;    9.277;   19.733;    0.000
 653.18;    4.777;    5.467;    0.000
 653.33;    0.097;   13.733;    0.000
 653.48;    9.367;   13.267;    0.000
 653.63;   11.497;   -8.600;    0.000
 653.79;    1.877;   17.533;    0.000
 653.94;    6.137;    7.400;    0.000
 654.09;    2.797;   12.067;    0.000
 654.24;    7.137;   10.467;    0.000
 654.39;    7.488;    7.333;    0.000
 654.55;    5.718;   16.133;    0.000
 654.70;   12.398;   16.333;    0.000
 654.85;    7.618;    3.400;    0.000
 655.00;    0.428;   11.933;    0.000
 655.16;    6.088;   -7.667;    0.000
 655.31;    8.998;    2.933;    0.000
 655.46;    6.448;    8.133;    0.000
 655.61;    4.189;   15.333;    0.000
 655.76;    5.189;   10.600;    0.000
 655.92;    9.569;    3.333;    0.000
 656.07;    6.779;   13.333;    0.000
 656.22;    4.639;   14.200;    0.000
 656.37;    0.709;    8.400;    0.000
 656.53;    5.509;   10.133;    0.000
 656.68;   10.219;   -4.000;    0.000
 656.83;    5.029;    7.800;    0.000
 656.98;   10.620;    7.533;    0.000
 657.13;    7.380;   18.467;    0.000
 657.29;    7.730;    6.800;    0.000
 657.44;    9.300;   -1.467;    0.000
 657.59;    9.260;    8.533;    0.000
 657.74;    2.310;   13.000;    0.000
 657.89;    7.580;   -1.533;    0.000
 658.05;   -0.660;    1.733;    0.000
 658.20;   -0.629;   13.133;    0.000
 658.35;    4.511;    2.467;    0.000
 658.50;    6.871;    0.667;    0.000
 658.65;   10.321;    1.533;    0.000
 658.81;    9.981;   21.400;    0.000
 658.96;    5.461;  -14.600;    0.000
 659.11;    6.771;   -2.333;    0.000
 659.26;    0.441;   12.000;    0.000
 659.41;    7.611;   12.800;    0.000
 659.57;    0.632;   13.867;    0.000
 659.72;   11.682;   10.933;    0.000
 659.87;    9.072;   22.000;    0.000
 660.02;    4.322;   -4.333;    0.000
 660.17;    2.102;   18.600;    0.000
 660.33;    6.972;   -1.400;    0.000
 660.48;    3.322;   12.733;    0.000
 660.63;    3.282;    5.800;    0.000
 660.78;    5.623;   19.533;    0.000
 660.93;   11.003;   -1.000;    0.000
 661.09;   10.143;   23.400;    0.000
 661.24;    8.523;   -7.667;    0.000
 661.39;   13.243;   12.667;    0.000
 661.54;    9.163;    7.200;    0.000
 661.69;    8.193;    4.000;    0.000
 661.84;    5.553;    8.533;    0.000
 662.00;    6.693;   -5.867;    0.000
 662.15;    9.494;   -3.733;    0.000
 662.30;    8.334;   20.333;    0.000
 662.45;    5.974;   30.800;    0.000
 662.60;    1.864;   -7.667;    0.000
 662.76;    0.134;    1.800;    0.000
 662.91;    4.444;   15.933;    0.000
 663.06;    6.724;   11.467;    0.000
 663.21;   11.044;   20.933;    0.000
 663.36;    3.935;   -4.733;    0.000
 663.51;    8.005;    1.400;    0.000
 663.67;    8.465;    7.667;    0.000
 663.82;    5.545;    4.800;    0.000
 663.97;    5.125;   -8.267;    0.000
 664.12;    2.295;   28.000;    0.000
 664.27;    9.685;   -0.667;    0.000
 664.42;    4.685;    4.267;    0.000
 664.58;    9.286;   24.533;    0.000
 664.73;    6.526;    6.333;    0.000
 664.88;    4.946;   -8.200;    0.000
 665.03;    8.856;   22.333;    0.000
 665.18;    4.396;  -10.400;    0.000
 665.33;    6.316;   13.600;    0.000
 665.49;    9.086;    0.400;    0.000
 665.64;    2.886;    0.067;    0.000
 665.79;    2.826;  -11.200;    0.000
 665.94;    7.837;    3.800;    0.000
 666.09;    0.567;    3.867;    0.000
 666.24;    8.497;   12.733;    0.000
 666.40;   11.087;   12.067;    0.000
 666.55;    5.377;    3.000;    0.000
 666.70;    1.597;    9.600;    0.000
 666.85;   12.547;   12.867;    0.000
 667.00;    3.287;    1.667;    0.000
 667.15;    6.658;    7.533;    0.000
 667.30;    7.088;   25.933;    0.000
 667.46;    1.938;    2.200;    0.000
 667.61;    7.488;    1.867;    0.000
 667.76;    3.168;    0.000;    0.000
 667.91;    1.518;  -13.200;    0.000
 668.06;    7.588;  -10.067;    0.000
 668.21;   11.408;   -9.000;    0.000
 668.36;   10.218;   17.400;    0.000
 668.52;    6.059;   10.867;    0.000
 668.67;   12.439;   12.867;    0.000
 668.82;    2.739;    3.533;    0.000
 668.97;    3.239;   14.600;    0.000
 669.12;    6.879;   10.533;    0.000
 669.27;    4.539;   23.800;    0.000
 669.42;   -0.731;    2.333;    0.000
 669.58;    2.319;   14.333;    0.000
 669.73;   10.160;  -12.400;    0.000
 669.88;   -0.360;   10.733;    0.000
 670.03;    3.010;   -7.933;    0.000
 670.18;    9.950;    9.467;    0.000
 670.33;    5.060;  -17.600;    0.000
 670.48;   14.730;   16.200;    0.000
 670.64;    0.450;   -4.267;    0.000
 670.79;    6.520;    8.133;    0.000
 670.94;   12.920;    4.067;    0.000
 671.09;    4.691;   24.333;    0.000
 671.24;    3.971;    7.933;    0.000
 671.39;    7.051;   10.067;    0.000
 671.54;    9.511;    4.200;    0.000
 671.69;    2.791;   19.400;    0.000
 671.85;    8.021;    7.600;    0.000
 672.00;    4.441;    8.133;    0.000
 672.15;    3.091;    0.800;    0.000
 672.30;    0.732;   -7.067;    0.000
 672.45;    8.892;   -3.667;    0.000
 672.60;    0.092;   13.467;    0.000
 672.75;    3.002;   -3.333;    0.000
 672.90;    8.172;   16.067;    0.000
 673.06;    4.072;   -6.600;    0.000
 673.21;    6.922;    5.333;    0.000
 673.36;    1.082;    0.533;    0.000
 673.51;    6.262;   12.400;    0.000
 673.66;    1.713;   13.400;    0.000
 673.81;    3.393;   -1.733;    0.000
 673.96;    4.973;    8.667;    0.000
 674.11;    4.753;    1.200;    0.000
 674.26;    2.023;   10.400;    0.000
 674.42;    5.153;    1.533;    0.000
 674.57;    8.263;   10.467;    0.000
 674.72;   10.443;   13.600;    0.000
 674.87;    1.594;   13.333;    0.000
 675.02;   11.494;   -6.667;    0.000
 675.17;    2.564;    2.467;    0.000
 675.32;    7.704;   19.933;    0.000
 675.47;   10.114;    3.267;    0.000
 675.62;    6.764;   15.467;    0.000
 675.77;    4.244;   21.267;    0.000
 675.93;    5.214;    6.533;    0.000
 676.08;    6.244;    1.467;    0.000
 676.23;    5.615;   14.933;    0.000
 676.38;   11.015;    5.400;    0.000
 676.53;   11.135;   -1.333;    0.000
 676.68;    5.645;   -0.867;    0.000
 676.83;    0.245;   21.000;    0.000
 676.98;    2.305;  -12.467;    0.000
 677.13;   10.085;   25.867;    0.000
 677.28;    5.165;    6.267;    0.000
 677.44;   10.376;   27.533;    0.000
 677.59;    0.386;    4.533;    0.000
 677.74;    8.676;   -0.733;    0.000
 677.89;    3.866;    0.200;    0.000
 678.04;   11.916;    6.800;    0.000
 678.19;    7.636;    4.200;    0.000
 678.34;   10.166;   28.733;    0.000
 678.49;    4.176;    9.267;    0.000
 678.64;    1.627;    0.467;    0.000
 678.79;   10.297;   10.333;    0.000
 678.94;    9.057;   16.333;    0.000
 679.09;    1.657;   17.600;    0.000
 679.25;    0.077;   -9.400;    0.000
 679.40;    3.897;  -10.000;    0.000
 679.55;    3.667;    6.467;    0.000
 679.70;    2.397;    0.867;    0.000
 679.85;    9.387;  -18.933;    0.000
 680.00;    3.448;    2.600;    0.000
 680.15;    4.688;   22.400;    0.000
 680.30;    4.548;   18.067;    0.000
 680.45;    9.318;    3.800;    0.000
 680.60;    2.298;  -10.333;    0.000
 680.75;    6.608;   14.533;    0.000
 680.90;    5.998;    8.267;    0.000
 681.05;    3.488;   24.467;    0.000
 681.21;    4.449;   -1.867;    0.000
 681.36;    0.729;   -2.933;    0.000
 681.51;    3.619;   -6.400;    0.000
 681.66;    0.759;   12.933;    0.000
 681.81;    8.739;   -0.333;    0.000
 681.96;    5.169;   12.800;    0.000
 682.11;    5.649;   -2.133;    0.000
 682.26;    9.839;   28.800;    0.000
 682.41;    1.469;   11.800;    0.000
 682.56;   12.260;    5.733;    0.000
 682.71;    8.200;    6.867;    0.000
 682.86;    1.730;   -0.600;    0.000
 683.01;   -6.400;   -0.667;    0.000
 683.16;    0.970;    8.400;    0.000
 683.31;    3.240;    5.067;    0.000
 683.46;    4.570;    3.933;    0.000
 683.61;    4.120;   11.133;    0.000
 683.77;   13.271;   20.800;    0.000
 683.92;    4.691;   18.733;    0.000
 684.07;   -1.979;    6.733;    0.000
 684.22;   -2.499;    5.000;    0.000
 684.37;   10.171;   19.200;    0.000
 684.52;    7.321;   12.933;    0.000
 684.67;    4.951;    3.600;    0.000
 684.82;    6.951;    7.133;    0.000
 684.97;    9.551;    8.000;    0.000
 685.12;    2.632;   -1.000;    0.000
 685.27;    2.852;    2.000;    0.000
 685.42;    6.852;   11.733;    0.000
 685.57;    9.782;  -22.200;    0.000
 685.72;    1.302;   -8.067;    0.000
 685.87;   -0.728;   15.200;    0.000
 686.02;    5.022;   -5.933;    0.000
 686.17;    2.522;    9.200;    0.000
 686.32;   -3.177;    8.667;    0.000
 686.47;    7.493;    7.267;    0.000
 686.62;   -3.107;   13.000;    0.000
 686.77;   13.833;    1.400;    0.000
 686.92;    8.873;   -0.867;    0.000
 687.08;    7.733;   18.800;    0.000
 687.23;    5.963;    0.800;    0.000
 687.38;    5.343;  -11.467;    0.000
 687.53;   -0.087;    0.867;    0.000
 687.68;    4.944;   -1.800;    0.000
 687.83;   -1.896;    4.600;    0.000
 687.98;    7.754;   21.667;    0.000
 688.13;    7.804;    0.600;    0.000
 688.28;    9.714;    5.333;    0.000
 688.43;   -3.976;    0.200;    0.000
 688.58;    2.784;   -1.400;    0.000
 688.73;    8.544;   20.933;    0.000
 688.88;    7.955;   -1.733;    0.000
 689.03;    7.395;   -8.467;    0.000
 689.18;   11.345;   -0.267;    0.000
 689.33;   -3.295;   13.467;    0.000
 689.48;   -0.375;    7.533;    0.000
 689.63;    9.375;    8.133;    0.000
 689.78;   11.695;    5.733;    0.000
 689.93;    9.175;   -3.400;    0.000
 690.08;    3.896;    5.933;    0.000
 690.23;    4.946;   -0.933;    0.000
 690.38;   15.366;   18.733;    0.000
 690.53;   40.836;    8.733;    0.000
 690.68;   43.956;    7.267;    0.000
 690.83;   19.706;    6.733;    0.000
 690.98;   16.186;    7.400;    0.000
 691.13;   11.206;    9.667;    0.000
 691.28;    2.486;    6.267;    0.000
 691.43;    6.187;   -7.733;    0.000
 691.58;    6.057;   17.267;    0.000
 691.73;    0.477;    6.000;    0.000
 691.88;    6.787;   15.333;    0.000
 692.03;   12.157;    4.000;    0.000
 692.18;    2.517;    6.333;    0.000
 692.33;    7.797;    2.400;    0.000
 692.48;    3.947;   14.933;    0.000
 692.63;    5.538;   17.333;    0.000
 692.78;    2.658;   -1.733;    0.000
 692.93;    5.518;    1.600;    0.000
 693.08;   -1.262;    1.867;    0.000
 693.23;    3.838;    0.133;    0.000
 693.38;    5.568;    0.067;    0.000
 693.53;    4.938;   -4.667;    0.000
 693.68;   -3.702;   18.800;    0.000
 693.83;    8.048;   13.200;    0.000
 693.98;    5.719;    9.133;    0.000
 694.13;    7.989;   16.133;    0.000
 694.28;    5.799;    9.067;    0.000
 694.43;    3.679;   12.400;    0.000
 694.58;    5.909;    0.067;    0.000
 694.73;    2.729;    0.200;    0.000
 694.88;    7.139;    8.800;    0.000
 695.03;    8.759;   11.867;    0.000
 695.18;    6.190;   -9.333;    0.000
 695.33;    7.950;   18.467;    0.000
 695.48;   11.170;    4.200;    0.000
 695.63;    8.200;    1.467;    0.000
 695.78;   11.740;   -6.667;    0.000
 695.93;   10.610;   -6.467;    0.000
 696.08;    7.270;   16.133;    0.000
 696.23;    4.300;    3.200;    0.000
 696.38;   22.950;   18.267;    0.000
 696.53;   18.050;   -1.067;    0.000
 696.68;    6.200;   10.733;    0.000
 696.83;    6.370;   18.133;    0.000
 696.98;    7.590;   -8.000;    0.000
 697.13;   -0.550;   -6.333;    0.000
 697.28;    3.830;   24.067;    0.000
 697.43;    5.220;   -6.667;    0.000
 697.58;    7.480;    8.000;    0.000
 697.73;    7.450;   -7.667;    0.000
 697.88;    9.110;    7.800;    0.000
 698.03;   -2.580;   -6.333;    0.000
 698.18;    7.670;  -10.800;    0.000
 698.32;    4.840;   -9.800;    0.000
 698.47;    6.890;    0.600;    0.000
 698.62;    8.940;   -2.467;    0.000
 698.77;    0.640;   23.933;    0.000
 698.92;    7.680;   -1.867;    0.000
 699.07;    6.240;   -9.000;    0.000
 699.22;    2.870;   17.200;    0.000
 699.37;   -0.180;    4.267;    0.000
 699.52;    3.750;   14.667;    0.000
 699.67;    2.430;    2.200;    0.000
 699.82;    5.530;   -7.333;    0.000
 699.97;    4.230;   29.933;    0.000
 700.12;    2.370;    2.133;    0.000
 700.27;    5.070;    5.067;    0.000
 700.42;    3.260;    9.600;    0.000
 700.57;    6.550;   -3.267;    0.000
 700.72;    2.040;   11.600;    0.000
 700.87;    7.580;    7.667;    0.000
 701.02;    4.970;   -4.667;    0.000
 701.17;    5.680;   12.067;    0.000
 701.32;    0.770;   -6.067;    0.000
 701.47;    8.930;   10.600;    0.000
 701.61;    0.560;   -8.000;    0.000
 701.76;   10.900;    0.667;    0.000
 701.91;    5.300;   11.933;    0.000
 702.06;    7.250;    4.267;    0.000
 702.21;    6.020;  -15.267;    0.000
 702.36;    6.190;   13.333;    0.000
 702.51;    8.200;    4.067;    0.000
 702.66;    5.350;   11.867;    0.000
 702.81;    5.000;  -19.267;    0.000
 702.96;    7.690;   22.200;    0.000
 703.11;    5.960;   -0.400;    0.000
 703.26;    1.050;   -2.333;    0.000
 703.41;    6.370;   10.333;    0.000
 703.56;    8.710;  -10.533;    0.000
 703.71;    5.420;   -2.467;    0.000
 703.86;    1.870;   -5.000;    0.000
 704.01;    1.780;    7.067;    0.000
 704.15;    8.670;    9.800;    0.000
 704.30;   -3.430;  -10.067;    0.000
 704.45;    2.130;   19.800;    0.000
 704.60;    3.500;   19.467;    0.000
 704.75;    7.290;   -6.733;    0.000
 704.90;   -0.890;    7.933;    0.000
 705.05;   11.660;   19.133;    0.000
 705.20;    5.720;   -6.800;    0.000
 705.35;    1.520;   14.800;    0.000
 705.50;    5.010;  -10.200;    0.000
 705.65;    7.920;    6.067;    0.000
 705.80;    4.360;   -4.467;    0.000
 705.95;    7.720;    8.200;    0.000
 706.09;    7.880;  -16.333;    0.000
 706.24;    2.640;   16.000;    0.000
 706.39;    4.900;    2.267;    0.000
 706.54;   12.840;    6.533;    0.000
 706.69;   14.350;   11.733;    0.000
 706.84;   13.360;    9.733;    0.000
 706.99;    1.160;    3.067;    0.000
 707.14;    4.890;   -2.667;    0.000
 707.29;    4.360;   27.200;    0.000
 707.44;    2.840;   -6.533;    0.000
 707.59;    2.510;    7.200;    0.000
 707.73;    9.500;   12.200;    0.000
 707.88;    5.120;   -0.867;    0.000
 708.03;   11.450;    5.333;    0.000
 708.18;    5.690;    5.067;    0.000
 708.33;    2.570;    8.600;    0.000
 708.48;    3.400;    5.533;    0.000
 708.63;    7.240;   17.800;    0.000
 708.78;    5.820;   19.333;    0.000
 708.93;    3.130;   18.200;    0.000
 709.08;    5.350;  -12.467;    0.000
 709.23;    6.060;   10.400;    0.000
 709.37;    3.430;    8.933;    0.000
 709.52;    6.790;   -0.333;    0.000
 709.67;    2.010;    2.600;    0.000
 709.82;    2.990;   25.800;    0.000
 709.97;   -0.140;  -10.933;    0.000
 710.12;    4.390;    8.667;    0.000
 710.27;   10.030;   17.200;    0.000
 710.42;    3.650;    0.133;    0.000
 710.57;    7.310;    9.067;    0.000
 710.71;    4.270;   22.533;    0.000
 710.86;    7.550;    9.467;    0.000
 711.01;    3.830;   13.533;    0.000
 711.16;    3.190;   -9.133;    0.000
 711.31;   -4.430;   13.333;    0.000
 711.46;    4.720;   19.000;    0.000
 711.61;    5.360;  -10.933;    0.000
 711.76;   -5.400;  -17.933;    0.000
 711.91;    7.700;   26.600;    0.000
 712.05;    3.880;    0.467;    0.000
 712.20;    9.720;   33.333;    0.000
 712.35;    4.660;   -5.733;    0.000
 712.50;    1.170;    5.333;    0.000
 712.65;   -3.750;    6.733;    0.000
 712.80;   12.650;    8.667;    0.000
 712.95;    5.660;   14.600;    0.000
 713.10;   -1.750;   11.400;    0.000
 713.24;    9.580;   19.800;    0.000
 713.39;    2.510;   13.133;    0.000
 713.54;    1.510;   -7.000;    0.000
 713.69;   -0.200;   19.333;    0.000
 713.84;    1.930;    7.200;    0.000
 713.99;    8.730;    8.533;    0.000
 714.14;   -1.190;   12.800;    0.000
 714.29;    4.450;   17.133;    0.000
 714.43;    2.430;   11.933;    0.000
 714.58;    3.550;    5.467;    0.000
 714.73;   12.260;    9.867;    0.000
 714.88;    6.640;    8.200;    0.000
 715.03;    4.220;   17.533;    0.000
 715.18;   -1.670;    2.267;    0.000
 715.33;    3.890;    5.933;    0.000
 715.47;   -0.410;   19.533;    0.000
 715.62;   -1.670;   -9.667;    0.000
 715.77;    0.320;   27.800;    0.000
 715.92;    8.580;    2.600;    0.000
 716.07;    6.280;    8.267;    0.000
 716.22;    2.600;   -3.267;    0.000
 716.37;   12.650;   43.333;    0.000
 716.51;   10.540;  -14.200;    0.000
 716.66;    0.360;   19.600;    0.000
 716.81;    7.830;   -7.600;    0.000
 716.96;    5.770;    6.333;    0.000
 717.11;    3.690;   -0.200;    0.000
 717.26;   12.110;    9.000;    0.000
 717.41;    3.660;   -8.800;    0.000
 717.55;   -0.090;    2.067;    0.000
 717.70;   10.690;   -0.733;    0.000
 717.85;    9.130;   -3.067;    0.000
 718.00;   -0.720;   -4.333;    0.000
 718.15;    7.740;    9.067;    0.000
 718.30;    4.520;  -14.733;    0.000
 718.44;   10.420;    0.267;    0.000
 718.59;   -0.420;    9.600;    0.000
 718.74;   -0.880;   12.800;    0.000
 718.89;    8.270;    7.933;    0.000
 719.04;    9.320;   10.400;    0.000
 719.19;    1.520;    8.133;    0.000
 719.33;    3.760;   -0.333;    0.000
 719.48;   -1.250;    1.467;    0.000
 719.63;   -1.340;   12.467;    0.000
 719.78;    6.430;   -4.733;    0.000
 719.93;   -2.270;   16.467;    0.000
 720.08;    7.350;   13.600;    0.000
 720.22;    8.280;    1.200;    0.000
 720.37;    1.840;   -7.667;    0.000
 720.52;    5.730;    5.800;    0.000
 720.67;    6.100;    9.000;    0.000
 720.82;    4.750;   14.133;    0.000
 720.97;    1.110;   -3.200;    0.000
 721.11;   13.500;    5.600;    0.000
 721.26;    4.060;   23.067;    0.000
 721.41;   -0.760;   14.333;    0.000
 721.56;    8.540;   -9.000;    0.000
 721.71;    1.510;   19.133;    0.000
 721.86;   -2.950;    2.400;    0.000
 722.00;   14.070;    8.600;    0.000
 722.15;   12.440;   -6.733;    0.000
 722.30;    4.170;    3.200;    0.000
 722.45;    9.850;   16.000;    0.000
 722.60;    2.760;    7.333;    0.000
 722.74;    3.840;    4.000;    0.000
 722.89;    3.930;  -22.467;    0.000
 723.04;   -0.140;   36.800;    0.000
 723.19;    9.870;   12.600;    0.000
 723.34;   -3.740;    5.933;    0.000
 723.49;   13.380;    3.800;    0.000
 723.63;    7.240;   -1.467;    0.000
 723.78;    4.950;    1.667;    0.000
 723.93;    8.170;   10.333;    0.000
 724.08;    4.540;    4.733;    0.000
 724.23;    0.850;   -0.600;    0.000
 724.37;    1.170;    7.000;    0.000
 724.52;    9.020;    5.867;    0.000
 724.67;   10.840;    8.733;    0.000
 724.82;    3.350;    3.133;    0.000
 724.97;    7.900;   19.267;    0.000
 725.11;    6.640;    1.400;    0.000
 725.26;    7.060;    4.267;    0.000
 725.41;    3.180;   -7.600;    0.000
 725.56;    4.410;    5.600;    0.000
 725.71;   11.550;   -5.267;    0.000
 725.85;    1.250;    8.733;    0.000
 726.00;    6.360;   -5.733;    0.000
 726.15;    1.390;   -5.800;    0.000
 726.30;    0.650;   -0.933;    0.000
 726.45;    1.480;   29.667;    0.000
 726.59;    3.060;    4.933;    0.000
 726.74;    0.570;   -9.800;    0.000
 726.89;    7.100;   15.800;    0.000
 727.04;   13.880;    2.133;    0.000
 727.18;   11.880;    7.733;    0.000
 727.33;    0.190;   15.667;    0.000
 727.48;   -1.430;   -3.200;    0.000
 727.63;    1.090;   -1.333;    0.000
 727.78;    8.370;   -4.467;    0.000
 727.92;    5.700;   11.467;    0.000
 728.07;    2.450;   -4.933;    0.000
 728.22;    7.050;    6.200;    0.000
 728.37;    8.490;  -11.467;    0.000
 728.52;   -6.020;   11.267;    0.000
 728.66;    1.650;   -0.600;    0.000
 728.81;    8.320;   21.800;    0.000
 728.96;    2.440;   22.333;    0.000
 729.11;    6.540;   -1.667;    0.000
 729.25;    6.060;   16.933;    0.000
 729.40;    8.210;   18.800;    0.000
 729.55;    9.850;   -2.200;    0.000
 729.70;   16.330;   13.933;    0.000
 729.84;   46.940;    5.533;    0.000
 729.99;   51.610;   25.267;    0.000
 730.14;   18.490;   12.400;    0.000
 730.29;   16.750;    6.667;    0.000
 730.44;    6.580;   -1.533;    0.000
 730.58;    4.780;   10.400;    0.000
 730.73;   11.440;   -7.067;    0.000
 730.88;   19.380;   14.667;    0.000
 731.03;   16.210;    5.333;    0.000
 731.17;    7.400;   36.400;    0.000
 731.32;    0.130;   16.933;    0.000
 731.47;   10.450;   13.067;    0.000
 731.62;    4.720;   17.600;    0.000
 731.76;    6.620;    9.933;    0.000
 731.91;    0.910;    9.067;    0.000
 732.06;    5.140;   15.933;    0.000
 732.21;   12.950;   -9.867;    0.000
 732.35;    7.040;   -9.733;    0.000
 732.50;   12.170;    3.000;    0.000
 732.65;   11.980;   19.533;    0.000
 732.80;    8.060;    4.533;    0.000
 732.94;   -0.560;    4.200;    0.000
 733.09;   15.560;    8.733;    0.000
 733.24;    5.770;   -0.800;    0.000
 733.39;    2.510;   19.267;    0.000
 733.53;    9.420;    7.000;    0.000
 733.68;    3.860;   16.800;    0.000
 733.83;   -4.040;   10.933;    0.000
 733.98;   -2.860;   -4.800;    0.000
 734.12;    5.410;    1.533;    0.000
 734.27;    7.040;  -19.200;    0.000
 734.42;    4.350;    5.867;    0.000
 734.57;   -2.100;   -4.800;    0.000
 734.71;    2.250;   24.133;    0.000
 734.86;    5.310;   -2.400;    0.000
 735.01;   11.420;    7.533;    0.000
 735.16;   -0.790;   17.067;    0.000
 735.30;    2.750;    7.267;    0.000
 735.45;    5.160;    3.933;    0.000
 735.60;   -1.440;    3.200;    0.000
 735.74;   -0.560;   -0.133;    0.000
 735.89;    4.380;   24.733;    0.000
 736.04;    2.550;   10.400;    0.000
 736.19;    1.880;    9.600;    0.000
 736.33;    5.910;   -5.200;    0.000
 736.48;    0.620;    5.733;    0.000
 736.63;    8.840;   -2.933;    0.000
 736.78;   -1.410;   12.933;    0.000
 736.92;   11.700;   -3.067;    0.000
 737.07;   10.020;   -0.467;    0.000
 737.22;   15.250;   23.000;    0.000
 737.36;   -2.320;  -10.733;    0.000
 737.51;    2.170;   12.800;    0.000
 737.66;    0.500;   12.400;    0.000
 737.81;    3.940;   -4.733;    0.000
 737.95;   14.240;    5.733;    0.000
 738.10;   16.190;    6.267;    0.000
 738.25;   24.230;    7.000;    0.000
 738.40;    7.410;   13.467;    0.000
 738.54;    8.610;  -13.800;    0.000
 738.69;    3.230;    8.800;    0.000
 738.84;   -3.200;   18.133;    0.000
 738.98;   -2.260;  -12.867;    0.000
 739.13;   -3.130;  -13.867;    0.000
 739.28;   -0.380;    9.867;    0.000
 739.42;    3.470;   17.867;    0.000
 739.57;   -3.540;   -1.000;    0.000
 739.72;   12.660;  -24.267;    0.000
 739.87;    3.970;   25.333;    0.000
 740.01;   -0.430;   13.600;    0.000
 740.16;    7.890;   -6.267;    0.000
 740.31;   -4.910;   10.067;    0.000
 740.45;    5.510;   20.600;    0.000
 740.60;    3.610;   10.067;    0.000
 740.75;    6.320;    7.267;    0.000
 740.90;    9.980;    6.200;    0.000
 741.04;    4.770;    9.467;    0.000
 741.19;    6.340;    2.267;    0.000
 741.34;   -2.180;   -9.067;    0.000
 741.48;    3.520;    7.867;    0.000
 741.63;    7.840;    4.000;    0.000
 741.78;    4.450;   -2.467;    0.000
 741.92;    9.490;    7.933;    0.000
 742.07;    4.760;   -1.333;    0.000
 742.22;    0.600;   19.867;    0.000
 742.36;    7.690;    2.533;    0.000
 742.51;    2.030;    2.667;    0.000
 742.66;    5.300;   17.400;    0.000
 742.81;    1.280;   -9.933;    0.000
 742.95;    6.330;   -4.133;    0.000
 743.10;    7.930;    8.133;    0.000
 743.25;    4.520;    9.533;    0.000
 743.39;    3.000;  -14.133;    0.000
 743.54;    5.530;    7.400;    0.000
 743.69;    3.470;   -0.867;    0.000
 743.83;    6.790;   13.800;    0.000
 743.98;    3.260;    0.667;    0.000
 744.13;    7.280;   26.667;    0.000
 744.27;    1.370;    9.533;    0.000
 744.42;    3.230;   -3.133;    0.000
 744.57;    0.410;  -10.200;    0.000
 744.71;    3.380;   16.000;    0.000
 744.86;    0.190;   12.533;    0.000
 745.01;    8.400;   -7.000;    0.000
 745.15;    7.260;   -8.467;    0.000
 745.30;    1.090;   21.600;    0.000
 745.45;    6.520;    4.867;    0.000
 745.59;   -5.890;   18.600;    0.000
 745.74;    3.800;    3.333;    0.000
 745.89;    8.970;   13.267;    0.000
 746.03;    4.400;    9.667;    0.000
 746.18;    1.910;   33.200;    0.000
 746.33;    2.340;  -21.000;    0.000
 746.47;    1.490;   11.733;    0.000
 746.62;    2.700;  -11.467;    0.000
 746.77;    9.570;   27.400;    0.000
 746.91;    5.440;    0.400;    0.000
 747.06;    2.800;   -4.600;    0.000
 747.21;    3.300;   14.333;    0.000
 747.35;    0.480;   11.267;    0.000
 747.50;    3.810;    4.933;    0.000
 747.65;    4.320;   14.467;    0.000
 747.79;    0.180;    6.067;    0.000
 747.94;    5.900;    9.400;    0.000
 748.09;    2.850;   18.067;    0.000
 748.23;    3.640;    6.533;    0.000
 748.38;   -2.710;    3.933;    0.000
 748.53;    4.170;    5.067;    0.000
 748.67;    8.550;   11.600;    0.000
 748.82;    1.960;   -2.133;    0.000
 748.96;    2.160;   18.400;    0.000
 749.11;    4.560;    4.000;    0.000
 749.26;   -1.320;   -6.933;    0.000
 749.40;    6.000;   -2.933;    0.000
 749.55;    3.280;    4.933;    0.000
 749.70;    1.220;    6.600;    0.000
 749.84;    1.500;    0.000;    0.000
 749.99;   13.620;   22.667;    0.000
 750.14;   16.220;    1.467;    0.000
 750.28;   25.390;   -9.800;    0.000
 750.43;   10.100;  -17.600;    0.000
 750.58;    8.070;    0.333;    0.000
 750.72;    3.780;   -8.467;    0.000
 750.87;    1.470;   18.667;    0.000
 751.01;   10.110;   11.867;    0.000
 751.16;    5.760;    2.733;    0.000
 751.31;   18.400;    0.533;    0.000
 751.45;   21.810;   13.667;    0.000
 751.60;    6.100;  -16.933;    0.000
 751.75;   -1.370;   11.400;    0.000
 751.89;    1.780;    5.200;    0.000
 752.04;    0.440;    6.067;    0.000
 752.18;   -0.360;    0.400;    0.000
 752.33;    2.600;    3.067;    0.000
 752.48;    0.610;    0.267;    0.000
 752.62;   12.670;   15.867;    0.000
 752.77;    9.030;   -7.867;    0.000
 752.92;   10.950;    0.467;    0.000
 753.06;    6.190;   -2.133;    0.000
 753.21;    2.510;    4.533;    0.000
 753.35;    2.350;    8.333;    0.000
 753.50;    3.780;   17.667;    0.000
 753.65;    1.230;   14.533;    0.000
 753.79;   -0.580;   15.267;    0.000
 753.94;    0.020;   -1.200;    0.000
 754.08;    2.920;    2.933;    0.000
 754.23;    5.350;    5.933;    0.000
 754.38;    8.110;   19.467;    0.000
 754.52;   -3.300;    4.267;    0.000
 754.67;    7.890;   20.467;    0.000
 754.82;    6.190;   -1.133;    0.000
 754.96;    5.160;   19.267;    0.000
 755.11;    8.900;  -24.467;    0.000
 755.25;    6.690;   -5.667;    0.000
 755.40;    2.800;   24.067;    0.000
 755.55;    0.610;    5.867;    0.000
 755.69;    3.100;    3.000;    0.000
 755.84;    0.760;   23.067;    0.000
 755.98;   -0.080;    7.200;    0.000
 756.13;   10.490;    5.667;    0.000
 756.28;    5.450;   -3.333;    0.000
 756.42;    0.770;   17.733;    0.000
 756.57;    8.410;    0.533;    0.000
 756.71;    0.560;   11.000;    0.000
 756.86;    4.270;    5.200;    0.000
 757.01;    1.520;    2.933;    0.000
 757.15;    4.150;    6.733;    0.000
 757.30;   12.120;  -11.067;    0.000
 757.44;    1.900;  -15.200;    0.000
 757.59;    7.200;   16.667;    0.000
 757.73;    9.750;    0.933;    0.000
 757.88;   12.750;   10.133;    0.000
 758.03;    6.030;   -1.400;    0.000
 758.17;    3.470;   -2.733;    0.000
 758.32;    4.940;   13.600;    0.000
 758.46;    4.070;   -0.800;    0.000
 758.61;    1.690;   -0.800;    0.000
 758.76;    8.860;    7.667;    0.000
 758.90;    2.100;   31.067;    0.000
 759.05;    8.090;   13.133;    0.000
 759.19;   -0.620;   -6.667;    0.000
 759.34;   10.720;   10.400;    0.000
 759.48;    5.520;    7.333;    0.000
 759.63;    9.440;    9.333;    0.000
 759.78;    6.430;   13.133;    0.000
 759.92;   11.040;    5.533;    0.000
 760.07;    2.970;   -6.667;    0.000
 760.21;   -0.980;    3.600;    0.000
 760.36;    7.660;   -2.400;    0.000
 760.50;    5.400;   18.000;    0.000
 760.65;    4.890;   19.467;    0.000
 760.80;   -0.660;   -6.333;    0.000
 760.94;    3.520;   -5.600;    0.000
 761.09;    6.340;    9.200;    0.000
 761.23;    6.220;   17.133;    0.000
 761.38;    4.570;    5.800;    0.000
 761.52;    3.580;    3.867;    0.000
 761.67;    8.490;    2.867;    0.000
 761.82;    3.350;   -1.933;    0.000
 761.96;  -26.630;  -17.800;    0.000
 762.11;   29.880;   24.000;    0.000
 762.25;   64.710;   69.533;    0.000
 762.40;    2.990;  -11.800;    0.000
 762.54;    1.490;   15.467;    0.000
 762.69;   13.340;    8.067;    0.000
 762.83;    2.330;   21.467;    0.000
 762.98;    5.000;    3.400;    0.000
 763.13;    9.290;    6.867;    0.000
 763.27;   46.320;    6.800;    0.000
 763.42;   52.440;    1.933;    0.000
 763.56;   24.650;   31.400;    0.000
 763.71;   14.000;   17.600;    0.000
 763.85;    6.180;    9.200;    0.000
 764.00;    6.090;    3.933;    0.000
 764.14;    2.470;  -10.267;    0.000
 764.29;    4.540;   23.333;    0.000
 764.44;   -2.130;    4.667;    0.000
 764.58;    3.540;   10.067;    0.000
 764.73;    0.350;   -9.600;    0.000
 764.87;    5.500;   28.000;    0.000
 765.02;    8.070;    8.933;    0.000
 765.16;   -1.500;   -1.800;    0.000
 765.31;    0.040;   -5.267;    0.000
 765.45;   11.770;   -0.933;    0.000
 765.60;    1.350;   12.400;    0.000
 765.74;   10.220;   13.867;    0.000
 765.89;   -1.860;    7.600;    0.000
 766.03;    8.190;    7.267;    0.000
 766.18;    4.460;   -4.467;    0.000
 766.33;   -2.840;    5.467;    0.000
 766.47;    3.180;    6.267;    0.000
 766.62;   -1.970;    9.200;    0.000
 766.76;    0.190;    4.267;    0.000
 766.91;   11.110;   22.533;    0.000
 767.05;   10.250;    2.200;    0.000
 767.20;   10.070;   12.933;    0.000
 767.34;   -4.160;    6.133;    0.000
 767.49;    0.970;    9.600;    0.000
 767.63;    2.730;   -9.400;    0.000
 767.78;    3.440;   -3.933;    0.000
 767.92;   -2.760;   -1.733;    0.000
 768.07;    9.620;    9.067;    0.000
 768.21;    3.600;    5.400;    0.000
 768.36;    0.980;   -8.200;    0.000
 768.50;    5.570;   14.467;    0.000
 768.65;    1.670;    8.533;    0.000
 768.79;   -2.560;   15.933;    0.000
 768.94;    8.630;    6.067;    0.000
 769.08;   -4.880;   10.133;    0.000
 769.23;    8.530;   16.867;    0.000
 769.37;    5.050;   22.200;    0.000
 769.52;    5.750;   -0.267;    0.000
 769.66;   -2.080;   -8.200;    0.000
 769.81;    2.140;    8.600;    0.000
 769.95;    9.580;   15.200;    0.000
 770.10;    8.680;   -4.133;    0.000
 770.24;   11.230;    6.333;    0.000
 770.39;   12.530;    3.600;    0.000
 770.53;   -1.140;    6.667;    0.000
 770.68;    3.810;   18.333;    0.000
 770.82;    4.690;   11.267;    0.000
 770.97;    1.770;   11.267;    0.000
 771.11;    6.620;    9.467;    0.000
 771.26;   13.120;    9.800;    0.000
 771.40;    2.890;   -0.667;    0.000
 771.55;    3.890;   26.200;    0.000
 771.69;   -0.320;   -6.067;    0.000
 771.84;    8.920;   -6.733;    0.000
 771.98;    2.790;   21.867;    0.000
 772.13;   15.490;   16.133;    0.000
 772.27;   23.840;   18.133;    0.000
 772.42;   18.100;   14.133;    0.000
 772.56;   12.450;    4.933;    0.000
 772.71;   17.480;    8.000;    0.000
 772.85;   -0.300;   10.533;    0.000
 773.00;    1.440;   -7.200;    0.000
 773.14;    5.220;   11.067;    0.000
 773.29;    6.090;   19.133;    0.000
 773.43;    4.320;    7.467;    0.000
 773.58;    8.560;   -0.933;    0.000
 773.72;    8.690;    9.467;    0.000
 773.87;    3.750;   13.600;    0.000
 774.01;    4.410;   -6.733;    0.000
 774.16;    8.080;    5.667;    0.000
 774.30;    1.780;    9.933;    0.000
 774.45;    6.040;   -6.133;    0.000
 774.59;    2.010;   -6.333;    0.000
 774.74;    4.320;   11.800;    0.000
 774.88;    8.650;    2.000;    0.000
 775.03;   -3.480;    4.733;    0.000
 775.17;   -3.190;    4.733;    0.000
 775.32;    7.960;   17.933;    0.000
 775.46;    4.230;  -16.867;    0.000
 775.60;    7.320;   13.867;    0.000
 775.75;   -1.870;    1.467;    0.000
 775.89;    3.010;   13.600;    0.000
 776.04;    1.470;   12.267;    0.000
 776.18;    4.140;    6.267;    0.000
 776.33;    4.110;   -0.400;    0.000
 776.47;    9.180;    8.600;    0.000
 776.62;    2.930;  -12.667;    0.000
 776.76;    5.090;   11.600;    0.000
 776.91;    5.290;    4.333;    0.000
 777.05;   -0.060;    9.600;    0.000
 777.20;    3.880;  -15.533;    0.000
 777.34;    7.980;    5.400;    0.000
 777.48;    7.160;   -5.267;    0.000
 777.63;    6.200;   -1.533;    0.000
 777.77;    3.700;   14.400;    0.000
 777.92;   11.810;   -9.467;    0.000
 778.06;    7.160;   -5.600;    0.000
 778.21;    8.900;    4.000;    0.000
 778.35;    3.640;   12.133;    0.000
 778.50;   11.180;   -0.600;    0.000
 778.64;   -3.680;    4.000;    0.000
 778.79;   -1.260;   -2.067;    0.000
 778.93;    1.720;  -18.600;    0.000
 779.07;    7.890;    4.733;    0.000
 779.22;   -2.580;    7.200;    0.000
 779.36;   -2.060;   20.000;    0.000
 779.51;    1.450;  -10.533;    0.000
 779.65;    2.640;    8.467;    0.000
 779.80;    9.520;   -3.867;    0.000
 779.94;    6.330;   16.133;    0.000
 780.08;    1.140;   -2.400;    0.000
 780.23;    4.740;    3.467;    0.000
 780.37;    3.140;   -2.867;    0.000
 780.52;    0.940;   12.000;    0.000
 780.66;    2.950;    1.800;    0.000
 780.81;    5.570;   10.133;    0.000
 780.95;    6.810;    8.467;    0.000
 781.10;    5.060;   12.867;    0.000
 781.24;   -0.310;    4.067;    0.000
 781.38;    4.910;   12.667;    0.000
 781.53;    1.580;   23.200;    0.000
 781.67;   -3.650;    3.533;    0.000
 781.82;    7.170;    4.133;    0.000
 781.96;    7.310;   -2.600;    0.000
 782.11;    6.730;    3.733;    0.000
 782.25;   10.180;   12.200;    0.000
 782.39;    4.390;    5.133;    0.000
 782.54;    8.370;   13.667;    0.000
 782.68;   -0.830;   -1.933;    0.000
 782.83;    4.930;   -7.000;    0.000
 782.97;    9.570;   28.000;    0.000
 783.11;    1.490;   10.933;    0.000
 783.26;    3.390;  -12.200;    0.000
 783.40;    8.390;    8.267;    0.000
 783.55;    4.620;  -21.000;    0.000
 783.69;    6.450;    1.467;    0.000
 783.84;   11.140;    1.800;    0.000
 783.98;    2.640;   -2.600;    0.000
 784.12;    2.560;   11.800;    0.000
 784.27;    4.640;    9.467;    0.000
 784.41;    1.710;   23.933;    0.000
 784.56;    6.570;   10.600;    0.000
 784.70;    9.470;   -3.933;    0.000
 784.84;    0.670;   -8.000;    0.000
 784.99;    1.610;   10.933;    0.000
 785.13;    0.100;   -5.267;    0.000
 785.28;    6.050;   -6.600;    0.000
 785.42;    2.460;   13.000;    0.000
 785.56;    2.350;   -2.667;    0.000
 785.71;    2.870;    8.600;    0.000
 785.85;    1.040;    0.533;    0.000
 786.00;    0.030;   -1.867;    0.000
 786.14;    6.570;    8.467;    0.000
 786.28;    6.030;   -3.267;    0.000
 786.43;   -1.590;   10.133;    0.000
 786.57;    2.170;   12.933;    0.000
 786.72;   -2.160;    4.467;    0.000
 786.86;    4.650;    9.400;    0.000
 787.00;   -3.300;    1.133;    0.000
 787.15;    0.510;   13.467;    0.000
 787.29;    6.000;   12.600;    0.000
 787.44;    4.770;   -5.267;    0.000
 787.58;    8.720;    1.067;    0.000
 787.72;    8.980;   17.467;    0.000
 787.87;   -1.880;   -7.933;    0.000
 788.01;    5.890;    9.800;    0.000
 788.15;    4.090;    1.533;    0.000
 788.30;    2.160;   15.200;    0.000
 788.44;    1.890;   24.733;    0.000
 788.59;    0.040;   -6.600;    0.000
 788.73;    1.140;  -21.667;    0.000
 788.87;    0.370;    8.667;    0.000
 789.02;    2.950;   -6.733;    0.000
 789.16;    1.590;   -9.067;    0.000
 789.30;    7.490;   18.533;    0.000
 789.45;    8.100;  -13.000;    0.000
 789.59;    6.510;   20.667;    0.000
 789.74;    3.790;   26.600;    0.000
 789.88;    3.320;    0.667;    0.000
 790.02;    3.190;   -1.933;    0.000
 790.17;    9.820;   -0.200;    0.000
 790.31;    7.340;   12.867;    0.000
 790.45;    1.600;   -3.600;    0.000
 790.60;    5.360;  -21.733;    0.000
 790.74;    1.420;   -3.333;    0.000
 790.89;    2.770;   18.200;    0.000
 791.03;    0.720;   -7.733;    0.000
 791.17;    4.280;   -0.333;    0.000
 791.32;   -5.780;   17.133;    0.000
 791.46;    4.770;  -10.067;    0.000
 791.60;    4.830;   10.800;    0.000
 791.75;    6.200;   -2.133;    0.000
 791.89;    3.610;    8.333;    0.000
 792.03;    6.630;    0.067;    0.000
 792.18;    8.140;   -1.467;    0.000
 792.32;    8.220;   10.733;    0.000
 792.46;    5.970;    2.800;    0.000
 792.61;    6.900;   13.333;    0.000
 792.75;    4.610;  -13.733;    0.000
 792.89;    4.470;   -4.200;    0.000
 793.04;    3.910;  -15.400;    0.000
 793.18;    4.370;   -7.133;    0.000
 793.33;    2.380;   -3.467;    0.000
 793.47;    2.090;   15.267;    0.000
 793.61;    5.720;   -1.000;    0.000
 793.76;    2.910;   -2.467;    0.000
 793.90;    4.490;    4.200;    0.000
 794.04;    4.660;    1.267;    0.000
 794.19;   11.790;   23.067;    0.000
 794.33;    9.870;    6.067;    0.000
 794.47;   12.620;   14.400;    0.000
 794.62;   23.340;    5.400;    0.000
 794.76;    8.140;    9.933;    0.000
 794.90;    8.250;  -14.200;    0.000
 795.05;    2.010;   -0.933;    0.000
 795.19;    1.470;   -5.933;    0.000
 795.33;    9.290;   23.600;    0.000
 795.48;   12.620;   -1.867;    0.000
 795.62;    4.670;  -10.467;    0.000
 795.76;    0.210;   14.933;    0.000
 795.91;    6.280;   -4.733;    0.000
 796.05;    0.750;   10.733;    0.000
 796.19;    2.400;   -6.600;    0.000
 796.34;    1.830;   10.333;    0.000
 796.48;    1.420;    9.267;    0.000
 796.62;   11.050;   11.600;    0.000
 796.77;   -0.440;    5.333;    0.000
 796.91;   -1.960;    4.067;    0.000
 797.05;    5.770;   18.400;    0.000
 797.20;    5.710;    4.800;    0.000
 797.34;    2.890;    6.733;    0.000
 797.48;    3.030;   13.200;    0.000
 797.62;    3.190;   27.800;    0.000
 797.77;    6.360;   -7.933;    0.000
 797.91;    3.260;    0.667;    0.000
 798.05;    0.860;   24.200;    0.000
 798.20;   -0.200;   22.333;    0.000
 798.34;    0.360;   16.000;    0.000
 798.48;    3.470;    4.333;    0.000
 798.63;    5.640;    9.867;    0.000
 798.77;   -2.930;   -4.133;    0.000
 798.91;   -0.010;    5.067;    0.000
 799.06;   -1.870;    7.267;    0.000
 799.20;    0.690;    4.533;    0.000
 799.34;    6.860;   -2.733;    0.000
 799.48;    8.580;   10.000;    0.000
 799.63;    6.540;   -5.333;    0.000
 799.77;    1.020;   -2.333;    0.000
 799.91;    3.500;   19.533;    0.000
 800.06;    1.010;   -2.400;    0.000
 800.20;    2.570;    4.400;    0.000
 800.34;    8.200;   -2.000;    0.000
 800.49;    7.400;   10.400;    0.000
 800.63;    4.490;    5.733;    0.000
 800.77;   -3.390;    1.267;    0.000
 800.91;    4.760;   11.867;    0.000
 801.06;    6.160;    8.933;    0.000
 801.20;   12.160;   -6.667;    0.000
 801.34;    5.910;    1.733;    0.000
 801.49;   12.670;    5.733;    0.000
 801.63;    4.720;  -10.400;    0.000
 801.77;    8.950;   -6.733;    0.000
 801.91;   -8.960;  -16.400;    0.000
 802.06;    0.050;    3.933;    0.000
 802.20;    3.780;   -9.000;    0.000
 802.34;    4.410;   16.267;    0.000
 802.49;    1.100;  -30.200;    0.000
 802.63;   10.460;   12.067;    0.000
 802.77;    1.700;    3.867;    0.000
 802.91;    2.150;    9.200;    0.000
 803.06;    2.550;   -0.200;    0.000
 803.20;   10.480;   10.533;    0.000
 803.34;   -7.900;    3.800;    0.000
 803.49;    7.490;   -8.200;    0.000
 803.63;    5.740;  -14.800;    0.000
 803.77;    6.690;    6.133;    0.000
 803.91;    1.660;   16.867;    0.000
 804.06;    5.270;   -9.467;    0.000
 804.20;    6.280;   10.667;    0.000
 804.34;    2.220;   26.867;    0.000
 804.48;    0.860;   32.933;    0.000
 804.63;    9.820;   18.933;    0.000
 804.77;    2.730;    7.467;    0.000
 804.91;   -0.310;    7.667;    0.000
 805.06;   -2.640;    4.267;    0.000
 805.20;   10.360;   19.800;    0.000
 805.34;    3.700;    0.267;    0.000
 805.48;    2.880;   10.400;    0.000
 805.63;    1.440;   -6.400;    0.000
 805.77;    5.810;   24.933;    0.000
 805.91;   -0.040;  -12.000;    0.000
 806.05;    3.460;    8.467;    0.000
 806.20;    2.660;   19.067;    0.000
 806.34;   15.430;   -0.133;    0.000
 806.48;   -3.860;   -5.133;    0.000
 806.62;    3.090;    1.867;    0.000
 806.77;    3.550;   -0.133;    0.000
 806.91;    5.280;   14.200;    0.000
 807.05;    2.700;    7.467;    0.000
 807.19;    9.480;    5.333;    0.000
 807.34;    2.300;    3.600;    0.000
 807.48;    1.830;   13.867;    0.000
 807.62;   -0.700;   -7.200;    0.000
 807.76;    3.090;   17.333;    0.000
 807.91;    6.440;   23.533;    0.000
 808.05;   -3.500;    6.867;    0.000
 808.19;    3.230;    6.533;    0.000
 808.33;    1.460;   24.867;    0.000
 808.48;   11.900;    3.533;    0.000
 808.62;   -0.750;   17.333;    0.000
 808.76;   10.650;   -3.267;    0.000
 808.90;   12.640;    6.800;    0.000
 809.04;   69.590;  -14.000;    0.000
 809.19;   97.490;    7.533;    0.000
 809.33;   35.780;   14.933;    0.000
 809.47;   18.980;  -14.133;    0.000
 809.61;    7.250;    4.267;    0.000
 809.76;   -0.460;   -3.733;    0.000
 809.90;    5.630;    9.733;    0.000
 810.04;   10.890;   -8.800;    0.000
 810.18;   18.440;    3.867;    0.000
 810.33;   11.400;    4.667;    0.000
 810.47;    9.990;   14.733;    0.000
 810.61;    8.780;   27.733;    0.000
 810.75;   -2.370;   -8.133;    0.000
 810.89;    1.640;    7.067;    0.000
 811.04;    2.620;    9.667;    0.000
 811.18;   24.790;    4.867;    0.000
 811.32;   55.190;   -8.400;    0.000
 811.46;   47.670;   -5.067;    0.000
 811.61;   14.490;    8.000;    0.000
 811.75;    3.290;   24.133;    0.000
 811.89;    3.760;    8.133;    0.000
 812.03;    3.470;   -5.133;    0.000
 812.17;    3.950;   -7.333;    0.000
 812.32;    7.170;    3.200;    0.000
 812.46;   -1.070;    0.533;    0.000
 812.60;    0.840;    9.067;    0.000
 812.74;   -0.010;   25.400;    0.000
 812.88;   -3.350;   13.067;    0.000
 813.03;   10.520;    2.000;    0.000
 813.17;    6.910;    6.933;    0.000
 813.31;    7.650;   -6.667;    0.000
 813.45;    2.520;   -3.333;    0.000
 813.59;    4.290;   13.533;    0.000
 813.74;    6.130;    7.333;    0.000
 813.88;   -1.000;    1.600;    0.000
 814.02;    3.520;   10.600;    0.000
 814.16;    6.530;   13.400;    0.000
 814.30;    4.870;   -5.933;    0.000
 814.45;    2.880;    7.067;    0.000
 814.59;    6.160;    9.133;    0.000
 814.73;   -5.310;   12.200;    0.000
 814.87;    2.470;   25.333;    0.000
 815.01;    0.580;   18.400;    0.000
 815.16;    7.910;    6.333;    0.000
 815.30;    6.610;   23.467;    0.000
 815.44;   16.340;  -12.400;    0.000
 815.58;    7.290;    4.067;    0.000
 815.72;    7.080;   21.867;    0.000
 815.87;    8.030;  -10.067;    0.000
 816.01;    9.890;    1.867;    0.000
 816.15;    4.310;   28.400;    0.000
 816.29;    3.890;    0.867;    0.000
 816.43;    6.890;   -9.867;    0.000
 816.57;    4.350;    0.400;    0.000
 816.72;   -3.330;   -3.133;    0.000
 816.86;    5.270;   13.733;    0.000
 817.00;    5.830;   19.067;    0.000
 817.14;   11.700;    5.067;    0.000
 817.28;    5.630;   -6.600;    0.000
 817.43;    8.140;    6.200;    0.000
 817.57;    2.370;   -7.933;    0.000
 817.71;   -5.080;   22.267;    0.000
 817.85;   10.490;   -6.933;    0.000
 817.99;    5.700;    5.733;    0.000
 818.13;    2.910;    1.533;    0.000
 818.28;    0.850;   15.200;    0.000
 818.42;    5.810;   12.000;    0.000
 818.56;    5.090;  -14.933;    0.000
 818.70;    3.890;    7.200;    0.000
 818.84;    2.620;   19.200;    0.000
 818.98;    1.680;   13.800;    0.000
 819.13;   -1.530;    4.867;    0.000
 819.27;    1.300;    3.867;    0.000
 819.41;    1.730;   16.933;    0.000
 819.55;   -2.290;    2.533;    0.000
 819.69;   -0.070;   -1.333;    0.000
 819.83;    3.710;   -3.733;    0.000
 819.98;    0.070;   -3.733;    0.000
 820.12;   -0.330;    8.933;    0.000
 820.26;   11.200;   21.000;    0.000
 820.40;    4.370;   11.933;    0.000
 820.54;   12.420;   18.600;    0.000
 820.68;    1.780;    1.533;    0.000
 820.82;    7.140;    8.600;    0.000
 820.97;    7.920;   19.133;    0.000
 821.11;    8.200;   29.133;    0.000
 821.25;    6.100;   20.600;    0.000
 821.39;    3.410;  -11.467;    0.000
 821.53;    2.700;   11.467;    0.000
 821.67;    8.650;   14.867;    0.000
 821.81;    5.210;   -0.133;    0.000
 821.96;    4.820;    4.533;    0.000
 822.10;    6.960;   -2.600;    0.000
 822.24;    7.530;    6.600;    0.000
 822.38;   -1.390;    2.267;    0.000
 822.52;    5.200;   -3.533;    0.000
 822.66;    1.270;    9.000;    0.000
 822.80;   -0.700;   12.267;    0.000
 822.95;    1.270;   -7.467;    0.000
 823.09;    0.910;   -5.867;    0.000
 823.23;    5.570;    0.933;    0.000
 823.37;    8.740;    2.333;    0.000
 823.51;    7.630;   15.133;    0.000
 823.65;    5.100;    7.933;    0.000
 823.79;    1.630;   16.133;    0.000
 823.94;    5.080;   -1.067;    0.000
 824.08;   -0.870;   -1.333;    0.000
 824.22;   -0.490;   -0.933;    0.000
 824.36;   -0.330;   18.267;    0.000
 824.50;    3.720;    8.200;    0.000
 824.64;    3.010;   10.333;    0.000
 824.78;    7.640;   16.533;    0.000
 824.92;    7.890;   -6.933;    0.000
 825.06;   -1.090;    2.800;    0.000
 825.21;   12.700;    3.867;    0.000
 825.35;    3.110;    1.400;    0.000
 825.49;    2.900;   -6.933;    0.000
 825.63;   -0.970;    9.200;    0.000
 825.77;   10.610;   -6.533;    0.000
 825.91;    5.300;   -0.400;    0.000
 826.05;    5.120;   11.533;    0.000
 826.19;   17.370;    9.000;    0.000
 826.34;    3.840;    7.467;    0.000
 826.48;   10.400;   -8.333;    0.000
 826.62;    7.430;    0.333;    0.000
 826.76;    7.480;    4.333;    0.000
 826.90;    3.140;  -18.733;    0.000
 827.04;    3.140;   13.400;    0.000
 827.18;    0.680;    4.867;    0.000
 827.32;   -3.150;    6.000;    0.000
 827.46;    3.280;  -17.467;    0.000
 827.60;    0.920;    8.333;    0.000
 827.75;    2.890;   20.600;    0.000
 827.89;    2.960;   -0.933;    0.000
 828.03;   -0.780;    8.467;    0.000
 828.17;    6.870;    0.200;    0.000
 828.31;    6.230;    6.400;    0.000
 828.45;    4.270;  -13.533;    0.000
 828.59;   -2.820;   -0.933;    0.000
 828.73;    7.240;    4.933;    0.000
 828.87;    6.930;   23.933;    0.000
 829.01;    6.070;    3.067;    0.000
 829.16;    0.260;    2.600;    0.000
 829.30;    6.590;   -5.000;    0.000
 829.44;    4.270;   16.533;    0.000
 829.58;   -1.070;   20.400;    0.000
 829.72;   10.050;   -2.533;    0.000
 829.86;    8.690;   18.467;    0.000
 830.00;    4.130;    5.600;    0.000
 830.14;    4.480;    0.933;    0.000
 830.28;   -4.330;   -9.067;    0.000
 830.42;    0.820;  -15.933;    0.000
 830.56;   -2.070;   -1.400;    0.000
 830.70;    7.190;    9.733;    0.000
 830.85;   -0.050;    1.267;    0.000
 830.99;    5.310;   12.267;    0.000
 831.13;    5.790;  -15.467;    0.000
 831.27;    5.770;   -2.533;    0.000
 831.41;    0.020;    9.600;    0.000
 831.55;    2.480;    4.400;    0.000
 831.69;    6.360;   -4.200;    0.000
 831.83;    6.320;  -14.267;    0.000
 831.97;    6.550;    8.933;    0.000
 832.11;    4.320;   -8.667;    0.000
 832.25;    6.230;   -5.267;    0.000
 832.39;   12.150;   13.333;    0.000
 832.53;   12.550;   -0.800;    0.000
 832.67;    3.080;   10.600;    0.000
 832.81;    6.550;    8.067;    0.000
 832.96;    9.910;   15.533;    0.000
 833.10;    3.110;    5.467;    0.000
 833.24;    2.820;   -3.333;    0.000
 833.38;    6.910;    8.600;    0.000
 833.52;    7.120;    0.067;    0.000
 833.66;    3.260;   15.400;    0.000
 833.80;    0.090;   -7.467;    0.000
 833.94;    8.780;   -4.000;    0.000
 834.08;    2.370;    6.600;    0.000
 834.22;    4.750;   -5.067;    0.000
 834.36;    8.950;   15.267;    0.000
 834.50;   -1.400;    9.200;    0.000
 834.64;    2.480;  -10.933;    0.000
 834.78;    5.760;   -1.667;    0.000
 834.92;    5.390;   -3.600;    0.000
 835.06;    5.760;  -14.000;    0.000
 835.20;   11.810;   19.800;    0.000
 835.34;    3.320;   12.333;    0.000
 835.48;   -1.030;    4.800;    0.000
 835.63;    1.600;   -6.267;    0.000
 835.77;    1.620;   18.800;    0.000
 835.91;   -2.250;   17.533;    0.000
 836.05;    0.450;   12.200;    0.000
 836.19;    0.160;    8.333;    0.000
 836.33;    4.380;    5.800;    0.000
 836.47;    7.270;   -8.400;    0.000
 836.61;    2.300;   11.267;    0.000
 836.75;    3.410;    3.400;    0.000
 836.89;   -0.950;   15.133;    0.000
 837.03;    3.590;   -0.733;    0.000
 837.17;    8.420;   13.200;    0.000
 837.31;    7.390;    2.667;    0.000
 837.45;   10.460;    5.000;    0.000
 837.59;    5.620;   -5.267;    0.000
 837.73;    3.280;    6.533;    0.000
 837.87;    2.140;  -24.400;    0.000
 838.01;    8.680;   -2.533;    0.000
 838.15;    4.850;    0.133;    0.000
 838.29;    5.100;   12.133;    0.000
 838.43;    1.820;   -2.467;    0.000
 838.57;   -1.240;    5.200;    0.000
 838.71;    4.920;   -9.133;    0.000
 838.85;   10.010;   20.067;    0.000
 838.99;    1.350;   -6.733;    0.000
 839.13;    6.420;   15.000;    0.000
 839.27;    2.770;  -14.467;    0.000
 839.41;    9.200;   18.933;    0.000
 839.55;    1.850;   13.000;    0.000
 839.69;    7.990;   -8.800;    0.000
 839.83;    3.780;    1.467;    0.000
 839.97;    3.970;   13.267;    0.000
 840.11;    6.080;    1.467;    0.000
 840.25;    4.640;   -0.467;    0.000
 840.39;    0.150;   -7.533;    0.000
 840.53;   12.560;    0.667;    0.000
 840.67;   21.190;   -7.267;    0.000
 840.81;   11.300;   24.267;    0.000
 840.95;   -2.110;    4.600;    0.000
 841.09;   13.210;    9.800;    0.000
 841.23;    6.520;   -8.000;    0.000
 841.37;    5.330;    9.867;    0.000
 841.51;    9.110;    3.800;    0.000
 841.65;    3.920;   15.200;    0.000
 841.79;    1.330;    0.067;    0.000
 841.93;    4.600;   -6.933;    0.000
 842.07;    5.940;   17.267;    0.000
 842.21;   17.590;   -1.333;    0.000
 842.35;   20.490;  -12.133;    0.000
 842.49;   12.860;    2.067;    0.000
 842.63;    7.520;    4.133;    0.000
 842.77;    2.610;  -10.467;    0.000
 842.91;    6.830;    2.800;    0.000
 843.05;    7.630;   14.267;    0.000
 843.19;    3.960;   -2.133;    0.000
 843.33;    3.070;    3.000;    0.000
 843.47;    0.590;  -10.667;    0.000
 843.61;    2.910;   20.400;    0.000
 843.75;    5.400;  -19.333;    0.000
 843.89;   -2.240;   -5.667;    0.000
 844.03;    5.580;  -10.600;    0.000
 844.17;    4.350;   28.533;    0.000
 844.31;    5.710;   -4.800;    0.000
 844.45;    7.770;   25.800;    0.000
 844.59;    5.850;   24.400;    0.000
 844.73;    5.270;   -4.400;    0.000
 844.87;    0.210;   -0.067;    0.000
 845.01;    4.660;   11.933;    0.000
 845.15;    8.190;   -0.600;    0.000
 845.29;    2.610;   -2.333;    0.000
 845.43;    6.460;   -3.467;    0.000
 845.57;    8.610;   13.600;    0.000
 845.71;    6.120;   -4.533;    0.000
 845.85;   -1.270;   26.733;    0.000
 845.99;   -4.500;  -14.467;    0.000
 846.13;   10.140;    6.400;    0.000
 846.27;    3.780;   12.200;    0.000
 846.41;    0.470;   19.667;    0.000
 846.55;   12.410;    9.733;    0.000
 846.68;    7.240;   18.800;    0.000
 846.82;    5.560;   -9.133;    0.000
 846.96;    2.260;  -12.600;    0.000
 847.10;   -3.660;    5.400;    0.000
 847.24;    3.800;   11.733;    0.000
 847.38;    0.200;   -5.933;    0.000
 847.52;    2.660;  -12.800;    0.000
 847.66;   -4.410;    4.267;    0.000
 847.80;    8.670;   -3.200;    0.000
 847.94;   -1.510;    3.867;    0.000
 848.08;   12.260;   15.667;    0.000
 848.22;   -1.150;   14.867;    0.000
 848.36;    1.550;   -5.333;    0.000
 848.50;    6.930;  -15.667;    0.000
 848.64;    9.530;   -2.867;    0.000
 848.78;    1.060;    1.267;    0.000
 848.92;    5.700;    2.200;    0.000
 849.06;    3.540;   -8.733;    0.000
 849.20;    8.290;   -9.867;    0.000
 849.34;    3.440;   10.267;    0.000
 849.47;    1.800;   12.267;    0.000
 849.61;    8.200;    8.933;    0.000
 849.75;    6.530;    1.000;    0.000
 849.89;    1.880;   -4.133;    0.000
 850.03;    7.240;   12.067;    0.000
 850.17;   -6.870;   -2.733;    0.000
 850.31;    4.170;   12.067;    0.000
 850.45;    5.130;   20.133;    0.000
 850.59;    0.050;    9.000;    0.000
 850.73;    7.700;   -4.133;    0.000
 850.87;    3.780;   -1.400;    0.000
 851.01;    4.180;   28.800;    0.000
 851.15;   -5.880;   17.400;    0.000
 851.29;    2.210;    6.067;    0.000
 851.42;    1.970;   -4.133;    0.000
 851.56;    1.240;    7.333;    0.000
 851.70;    5.850;   -4.933;    0.000
 851.84;    3.380;    6.067;    0.000
 851.98;   10.060;  -10.400;    0.000
 852.12;    2.600;    9.867;    0.000
 852.26;   11.100;    1.000;    0.000
 852.40;    2.690;   -1.800;    0.000
 852.54;    4.910;    8.067;    0.000
 852.68;    2.240;  -11.467;    0.000
 852.82;   -2.260;   16.200;    0.000
 852.96;    6.850;   22.267;    0.000
 853.09;   -0.790;    5.933;    0.000
 853.23;    0.990;    7.600;    0.000
 853.37;    6.780;   11.000;    0.000
 853.51;   -2.080;   -6.467;    0.000
 853.65;    5.170;   14.133;    0.000
 853.79;    6.540;  -12.333;    0.000
 853.93;    4.660;   11.800;    0.000
 854.07;    2.760;  -12.867;    0.000
 854.21;    2.210;    3.400;    0.000
 854.35;    1.520;   -2.133;    0.000
 854.49;    2.780;    8.267;    0.000
 854.62;   -0.030;    9.000;    0.000
 854.76;    7.510;   -2.333;    0.000
 854.90;    0.820;   17.133;    0.000
 855.04;    5.870;   10.000;    0.000
 855.18;   11.500;   24.667;    0.000
 855.32;    6.710;    7.067;    0.000
 855.46;   -0.680;   -3.267;    0.000
 855.60;    1.520;    3.533;    0.000
 855.74;    2.830;   -0.733;    0.000
 855.87;    5.320;  -11.200;    0.000
 856.01;    4.030;    3.000;    0.000
 856.15;    2.300;    7.000;    0.000
 856.29;    5.820;    5.933;    0.000
 856.43;    3.620;    3.533;    0.000
 856.57;    2.200;    2.667;    0.000
 856.71;    1.750;   26.267;    0.000
 856.85;    4.070;   -5.733;    0.000
 856.99;    0.610;   10.667;    0.000
 857.12;   -1.980;   -4.067;    0.000
 857.26;    0.060;    1.733;    0.000
 857.40;    7.390;   17.933;    0.000
 857.54;    0.290;   19.267;    0.000
 857.68;    2.850;   -2.800;    0.000
 857.82;    5.900;   16.200;    0.000
 857.96;    2.230;    6.600;    0.000
 858.10;    5.070;   11.133;    0.000
 858.23;    7.560;    6.200;    0.000
 858.37;    3.200;  -17.667;    0.000
 858.51;    2.120;    3.800;    0.000
 858.65;    0.650;    4.733;    0.000
 858.79;    5.710;   13.800;    0.000
 858.93;    2.730;   -8.200;    0.000
 859.07;    2.360;    2.133;    0.000
 859.20;    9.200;   11.333;    0.000
 859.34;    2.750;   -4.200;    0.000
 859.48;    7.460;    6.800;    0.000

